,Fp1,Fp2,C3,C4,P7,P8,O1,O2,F7,F8,F3,F4,T7,T8,P3,P4,Marker
0,22088.820885279285,12961.195464276727,-29439.348511618202,-28472.523805203895,-26604.812038518434,-19866.9904311884,-8631.260231883554,-14805.16967835065,-14781.454477483569,-12729.676095208657,-26872.898861515387,-26474.121388688254,-28953.01925575963,-22569.115170134923,-12775.139543430752,-9952.673012336852,0
1,45332.10937167518,25930.79518446865,-58924.45104413641,-56989.50523012939,-53232.35580114792,-39759.32774058911,-17248.215347315712,-29640.67067392715,-29974.0245907336,-25486.464856441602,-53701.563620753725,-52179.11925066939,-57831.92012690546,-45033.802990174656,-25240.014522077385,-19843.20817508795,0
2,44919.2502998412,25840.002398491193,-58883.860276205574,-56946.03108716382,-53220.732894031156,-39732.148019331464,-17267.527254525095,-29608.461810167053,-29946.39783458684,-25472.22679522357,-53689.51603049231,-52217.4748441547,-57845.53233927874,-45035.27820530871,-25255.19135656254,-19855.188710115995,0
3,45403.83611963226,25791.610871745455,-58896.377253100545,-56958.19043614751,-53218.31890562998,-39734.941987388374,-17239.408760000322,-29609.333528200812,-29926.236561088153,-25509.24128404156,-53600.24316313781,-52132.85113964691,-57831.026057127245,-45024.66112669243,-25245.580106446756,-19830.914715637533,0
4,45303.9461736615,25772.835406402995,-58894.11972691056,-56946.63458426412,-53215.6590480398,-39725.800123906156,-17269.002469659146,-29598.738801328996,-29962.245221405654,-25519.836010913376,-53638.75521883431,-52087.87942980283,-57856.5070458063,-45023.163559813926,-25234.784213874846,-19832.658151705047,0
5,45489.35389391827,25815.884866223918,-58915.24212542083,-56973.099049699194,-53207.724178758166,-39732.5279989872,-17246.404856014833,-29601.264548452444,-29915.2618545606,-25439.637951807734,-53603.215945150376,-52138.5061309941,-57831.517795505264,-45010.221899774304,-25239.679245910556,-19818.7777183983,0
6,45721.47676008663,25768.365057511935,-58882.474468049346,-56949.56266278776,-53209.37820784786,-39716.770019146206,-17271.461161549232,-29583.852539521762,-29936.585418770963,-25517.936112634674,-53617.386951135035,-52067.60639758187,-57845.26411834528,-45020.88368187949,-25213.594760131215,-19817.526020708803,0
7,45633.120314254804,25690.245710640636,-58871.41035454397,-56955.57528204624,-53194.447242551716,-39715.25010052325,-17244.862585647417,-29579.67276330862,-29918.033470873055,-25430.920771470162,-53552.96922361484,-52106.96781956766,-57839.005629897794,-45001.772940370196,-25241.288571511337,-19805.25491300284,0
8,46176.78179464123,25698.69467004474,-58861.03914511671,-56940.64431675009,-53201.89037345533,-39706.13058878548,-17272.645804005362,-29569.636830048184,-29911.73027893666,-25489.214121009605,-53569.68832846741,-51939.24032917504,-57857.1552463955,-45015.49691146576,-25200.116658224662,-19799.59992165565,0
9,45745.21431269817,25763.805301643053,-58860.41329627196,-56957.76575300286,-53184.85834418039,-39707.85167310854,-17241.12984432338,-29560.38320784369,-29874.469920929663,-25447.773986789463,-53509.2268597158,-52108.15246202379,-57817.615010454065,-44994.48627167777,-25241.646199422623,-19793.00615704133,0
10,46501.93262123259,25717.827763298486,-58869.15282835399,-56966.66174729607,-53206.114853157385,-39728.77290591871,-17271.394106315864,-29576.230594662502,-29904.9577003667,-25460.827405551365,-53537.30065075167,-51903.7010554911,-57838.31272581968,-45032.37247852951,-25211.18077173004,-19796.761250109823,0
11,45777.31141773599,25745.38746421188,-58838.50858670576,-56960.20209314849,-53181.21500983417,-39729.845789652565,-17245.622544958896,-29573.414274861134,-29853.90631603078,-25473.143216746237,-53487.21039142733,-52116.154386538794,-57811.55768770668,-45011.875928864,-25260.712237443,-19803.73499437988,0
12,46736.44712405767,25690.648042040833,-58837.994496583284,-56971.98146247643,-53201.711559499694,-39754.25389459776,-17271.55056852705,-29595.341336171787,-29884.774075123558,-25519.970121380105,-53495.882868275985,-51853.00729906646,-57836.61399324107,-45034.38413553049,-25209.817315318265,-19802.930331579486,0
13,45783.435795716745,25675.27004185558,-58828.159729022955,-56971.82500026524,-53188.4569750377,-39745.76023170474,-17261.022896888604,-29584.299574410867,-29842.506926358576,-25495.941996090653,-53449.97238516479,-52085.2419239571,-57793.27396074223,-45029.71262093933,-25269.697638714035,-19814.35207299615,0
14,46938.37278346691,25738.01138854163,-58856.814665414655,-57005.35261694821,-53230.70177205822,-39774.77279600773,-17291.46597283673,-29606.472504910533,-29887.52333969156,-25497.6183769248,-53470.55834180812,-51824.88880454169,-57824.34288553511,-45058.09933639757,-25225.463536436982,-19812.183953783984,0
15,45803.03827560405,25648.6044107204,-58818.79434809618,-56993.48384064244,-53222.476330098674,-39766.614409281545,-17287.085030923492,-29596.66008909465,-29847.804289794483,-25480.787513349955,-53453.77218172219,-52101.98338055413,-57816.31860927566,-45051.751440972264,-25299.447810584046,-19842.828195432212,0
16,46984.4397287893,25692.36912636389,-58829.12085403453,-57000.34582619022,-53246.951490277235,-39769.140156404996,-17278.077277908003,-29618.90007482768,-29875.699266874704,-25504.14508630575,-53444.45150428433,-51779.403004575135,-57823.8511471571,-45054.99244391829,-25217.57337064426,-19802.550351923746,0
17,45709.116245402845,25628.174916288248,-58788.932417503886,-56973.724898543944,-53226.812568523004,-39742.89920841446,-17280.3795075869,-29586.087713967292,-29842.57398159194,-25474.305507457913,-53412.7567306467,-52013.314010299924,-57812.20588829588,-45041.29082456718,-25272.156330604117,-19805.232561258385,0
18,46914.47876864419,25627.83964012142,-58813.13935674899,-57015.545012419825,-53246.90678678832,-39767.97786569332,-17283.37464134391,-29603.29855719788,-29869.418426682765,-25483.693240129145,-53435.980193135765,-51761.05222237733,-57839.2514990868,-45047.4822577813,-25220.27793172335,-19787.842904072157,0
19,45689.37965504881,25598.134171740316,-58763.60789103602,-56967.35465137418,-53209.467614825684,-39732.975033876304,-17282.748792499162,-29572.52020508292,-29836.248437911087,-25475.244280725037,-53385.778175089144,-51959.11102999581,-57826.33219079163,-45033.5794727301,-25273.25156608243,-19794.950758808944,0
20,46877.71014901521,25630.92418085625,-58790.83231578259,-56997.641265111124,-53248.98549902267,-39753.22571435281,-17274.724516239705,-29603.410315920155,-29838.28244665652,-25439.727358785556,-53398.94335257332,-51742.79084715735,-57827.740350692315,-45036.507551253744,-25223.47423118046,-19773.135456220563,0
21,45775.389167712834,25628.46548896617,-58734.885899410954,-56974.06017471077,-53238.07784772848,-39733.64558620997,-17286.213312889733,-29573.45897835004,-29858.1978509662,-25418.090870152817,-53357.86084626447,-51905.95858168109,-57848.12514163556,-45026.85159764905,-25276.850196939733,-19793.16261925252,0
22,46857.4594685387,25670.21854760868,-58763.22791138029,-56997.864782555676,-53254.59578688095,-39754.41035680895,-17270.477684793197,-29591.608594847752,-29849.033635739524,-25450.79147229093,-53368.38851790292,-51730.51973945138,-57844.5041590338,-45034.67470820841,-25220.79202184582,-19761.132569448062,0
23,45871.63577933738,25727.32725469199,-58727.487471996246,-56980.877456769646,-53238.50253087313,-39735.858408911045,-17296.159839172346,-29573.99542021697,-29828.313568629455,-25438.721530285067,-53332.53631979661,-51870.911046375164,-57832.52362400576,-45035.36761228652,-25253.9620106175,-19770.58735735266,0
24,46767.69486280619,25740.89476357636,-58771.25218763974,-57029.20192828202,-53268.476220187695,-39772.49291807329,-17296.293949639075,-29613.848580580783,-29849.48067062863,-25393.63806171871,-53370.13195397043,-51809.53315610089,-57838.938574664426,-45052.51140028374,-25253.93965887304,-19773.29191843175,0
25,46153.0442420297,25654.41586427878,-58739.75857970221,-56998.200058722505,-53275.62877841339,-39754.164487619935,-17318.62334234993,-29597.174179217123,-29845.77028104905,-25480.251071483028,-53357.50321835318,-51822.87714754071,-57842.82777819965,-45068.96228420285,-25286.99788892244,-19796.73889836537,0
26,46967.3853477699,25745.00748455614,-58758.22112062229,-57030.72184690498,-53293.19724955526,-39768.87193547153,-17289.65548153585,-29608.61827237824,-29828.9394174742,-25385.63613720371,-53345.61209030296,-51771.378728315685,-57820.58779246662,-45055.55123752967,-25283.935699932063,-19772.91193877601,0
27,46718.118693604316,25797.355270070468,-58734.59532673303,-57014.67329438607,-53303.18847932679,-39756.84669695458,-17325.150051730878,-29596.503626883463,-29844.675045570737,-25410.021890404452,-53376.88218079593,-51821.49133938448,-57847.186368368435,-45070.61631329254,-25312.165953179116,-19788.804029083734,0
28,47317.81599734021,25750.95304858125,-58758.511693300214,-57032.599393439225,-53321.27104059113,-39770.6377232835,-17304.42998462081,-29620.397641706186,-29844.20565893718,-25397.013175131462,-53359.06784046505,-51810.516632856925,-57817.3467895206,-45064.693101011886,-25335.92585753511,-19768.8662730296,0
29,47430.75936207287,25785.084162364503,-58720.37961725946,-56997.574209877755,-53333.18452038581,-39746.81076369414,-17328.614572121453,-29595.967185016536,-29872.592374395415,-25470.349248689326,-53367.673262080345,-51765.567274757304,-57847.34283057962,-45084.36263613256,-25367.710038150555,-19779.349241179138,0
30,47731.01034534101,25810.878075465927,-58749.34747807354,-57035.61687894069,-53353.45755260677,-39777.41030185346,-17302.57478983102,-29624.68917664161,-29841.47874611363,-25420.750727742998,-53340.35943035596,-51823.30183068536,-57812.11648131806,-45062.56968528863,-25409.194875859605,-19773.694249831948,0
31,47916.28395513105,25824.624398305943,-58716.445710235326,-56995.406090665594,-53367.44974463579,-39764.7368627473,-17318.511583627653,-29607.455981666564,-29839.48944085711,-25421.197762632106,-53363.67229982284,-51754.927844396574,-57853.31074634919,-45082.4403861094,-25417.062689907874,-19791.59799714065,0
32,47714.53710967745,25802.607930017464,-58739.378600046475,-57005.129099503654,-53378.647968607904,-39766.01091218125,-17295.288121138587,-29614.362670703256,-29848.743063061604,-25397.527265253935,-53354.35162238498,-51872.96740686505,-57825.39341752451,-45073.11970867154,-25477.032420281463,-19782.9702237809,0
33,48072.90262852939,25858.666105111373,-58695.63623614744,-56988.767622562365,-53381.71015759828,-39743.72622295931,-17320.679702839818,-29598.09060073979,-29847.87134502785,-25417.93440794163,-53376.09986974,-51729.04452431733,-57845.17471136746,-45093.1915751924,-25488.387106464757,-19768.687459073957,0
34,47429.8429405502,25804.619587018442,-58711.79654738862,-57009.80061409481,-53385.8005268336,-39751.795202707675,-17298.819696762526,-29600.638699607694,-29807.2358736081,-25347.034674529397,-53335.91143320935,-51883.785651181424,-57800.761795134764,-45054.99244391829,-25581.839750032395,-19765.0664764722,0
35,47911.6571440288,25806.45243006378,-58704.7557478852,-56995.09316624322,-53402.78785261964,-39755.34913007607,-17312.923647513824,-29600.99632751898,-29849.05598748398,-25394.867407663754,-53371.51776212666,-51719.23210850145,-57831.11546410507,-45093.50449961478,-25596.54719788399,-19769.469770129894,0
36,47021.387162373925,25869.461997683287,-58684.81799183107,-56980.65393932509,-53385.66641636687,-39735.791353677676,-17285.341594855978,-29587.317059912333,-29812.95792018866,-25355.036599044397,-53312.06212187554,-51882.69041570311,-57803.26519051375,-45060.9380079434,-25707.769478293598,-19769.492121874348,0
37,47802.044189219974,25769.348534267967,-58697.04439604812,-56984.47608762695,-53425.72074243078,-39743.56976074812,-17304.09470845398,-29596.414219905644,-29835.399071621785,-25342.944305294073,-53366.645081835406,-51716.505195677906,-57825.81810066916,-45084.340284388105,-25738.212554241723,-19753.398865866526,0
38,46770.6899965632,25809.91695045435,-58684.974454042254,-56990.935741774534,-53424.26787904118,-39736.5289612447,-17295.489286838685,-29591.98857450349,-29824.558475560963,-25337.378720924702,-53340.694706522794,-51898.06841588836,-57802.505231202274,-45061.63091202151,-25905.94004463435,-19765.62527008358,0
39,47688.92201053167,25813.470877822743,-58692.66345413488,-57002.64805586911,-53453.034574155165,-39748.95653116185,-17310.062624223545,-29604.505551398463,-29831.28635064201,-25343.480747161004,-53367.33798591352,-51714.44883518801,-57827.06979835866,-45080.31697038615,-25951.76112076773,-19738.870231970577,0
40,46552.64872940168,25784.592423986487,-58680.41469817337,-56992.120384230664,-53452.31931833259,-39733.48912399878,-17303.871191009428,-29596.436571650098,-29811.52740854352,-25306.95799672103,-53347.824913004035,-51923.54940456741,-57809.12134756105,-45063.35199634457,-26102.903616774514,-19753.041237955244,0
41,47628.48289352452,25843.086939226025,-58693.33400646854,-57009.21946873897,-53481.06366170212,-39753.896266686475,-17305.167592187834,-29615.837885837303,-29825.29608312799,-25352.82377634332,-53376.92688428485,-51723.32247773677,-57831.20487108289,-45088.40830187897,-26095.415782381988,-19731.024769666765,0
42,46551.531142178916,25813.850857478483,-58666.15428521088,-56985.1019364717,-53465.39508883895,-39735.567836233124,-17296.070432194523,-29593.530844870907,-29801.55853051645,-25291.088258157764,-53365.371032401454,-51939.575605341866,-57799.66655965645,-45067.17414464643,-26179.726562467404,-19742.602973294615,0
43,47650.499361812996,25817.20361914678,-58681.129953995944,-56992.65682609759,-53497.849821788055,-39748.39773755047,-17293.477629837707,-29619.995310305992,-29823.99968194958,-25324.034729484883,-53346.19323565879,-51735.928861609566,-57812.60821969608,-45077.277133140225,-26154.759663910827,-19714.66329272548,0
44,46652.00223350552,25903.302538788623,-58663.740296809716,-56976.22829392294,-53488.484440861284,-39730.15871407494,-17307.1345456999,-29601.04103100789,-29813.76258298905,-25289.210711623517,-53355.22334041874,-51907.45614855959,-57808.16022254947,-45067.554124302165,-26221.99371123239,-19728.767243476777,0
45,47739.07932508938,25812.82267723354,-58711.66243692189,-57017.33315197625,-53531.489197193296,-39768.559011049154,-17307.246304422177,-29640.87183962725,-29840.159993190766,-25325.19702019656,-53383.16302098787,-51781.10173715374,-57815.13396681952,-45078.28296164071,-26198.27851036531,-19719.066586383175,0
46,46863.382680819355,25786.514674009642,-58663.56148285407,-56977.27882591234,-53505.40471141395,-39739.76996419072,-17311.336673657497,-29610.85344682377,-29815.349556845376,-25328.996816753963,-53361.101849210485,-51897.1519943657,-57821.50421398929,-45077.7912232627,-26239.562182374262,-19737.842051725635,0
47,47770.9752644271,25880.101428044014,-58691.121183767464,-57007.69955011601,-53518.54753715367,-39759.30538884466,-17277.294966852067,-29625.069156297348,-29803.838408450894,-25281.164083619606,-53361.30301491058,-51787.56139130132,-57793.139850275504,-45065.654226023464,-26186.14151312608,-19708.96359788938,0
48,46998.92365919634,25914.679576716375,-58652.22914841523,-56958.19043614751,-53503.14718522396,-39730.29282454167,-17298.126792684412,-29594.313155926844,-29818.970539447135,-25287.266109855904,-53376.03281450663,-51906.24915435901,-57818.039693598716,-45075.75721451727,-26216.070498951736,-19728.90135394351,0
49,47720.54972893593,25928.13532687847,-58696.731471625746,-57002.67040761357,-53520.916822065934,-39752.44340329688,-17275.529179040095,-29620.75526961747,-29814.701356256173,-25273.273917826882,-53368.723794069745,-51794.15515591564,-57796.58201892162,-45043.32483331261,-26179.65950723404,-19695.887827383023,0
50,47092.93509637536,25840.248267680203,-58653.883177504926,-56953.87654946763,-53514.85949931855,-39735.791353677676,-17300.80900201905,-29602.38213567521,-29815.550722545475,-25301.794743751856,-53355.26804390765,-51852.381450221714,-57807.757891149275,-45058.34520558658,-26205.922806969025,-19721.838202695635,0
51,47568.69197710657,25894.942986362337,-58673.50800913668,-56984.47608762695,-53518.63694413149,-39751.6834439854,-17261.916966666813,-29617.760135860462,-29804.71012648465,-25280.80645570832,-53344.85213099148,-51804.995751976465,-57805.030978325725,-45056.17708637442,-26180.620632245616,-19698.502981484293,0
52,47174.94364678188,25911.349166792534,-58639.84628198699,-56948.37802033163,-53516.04414177468,-39723.117914571514,-17281.83237097649,-29591.452132636565,-29807.66055675275,-25290.73063024648,-53354.888064251914,-51827.90629004315,-57813.36817900756,-45057.428784063915,-26176.865539177124,-19698.793554162214,0
53,47387.32992259621,25939.04297817266,-58672.882160291934,-56978.70933755748,-53525.36481921254,-39740.93225490239,-17261.045248633058,-29612.820400335837,-29804.441905551186,-25240.260391266394,-53340.24767163368,-51822.45246439606,-57800.04653931219,-45045.3811938025,-26165.108521593636,-19686.678908667436,0
54,47234.08636261062,25994.117676510537,-58650.26219490316,-56955.57528204624,-53527.0859035356,-39723.43083899389,-17297.433888606298,-29599.744629829485,-29836.829583266925,-25300.990080951462,-53364.90164576789,-51824.79939756387,-57824.879327402035,-45061.474449810325,-26153.03857958777,-19701.028728607744,0
55,47187.6394376325,25953.549260324155,-58663.449724131795,-56960.06798268175,-53517.072322019616,-39724.302557027644,-17263.012202145124,-29606.986595033002,-29799.70333572666,-25268.28947881335,-53333.475093063724,-51839.328031459816,-57791.06113804116,-45043.97303390182,-26146.89184986256,-19679.816923119655,0
56,47289.40693013751,25956.09735919206,-58656.69949730629,-56950.74730524389,-53535.668973406435,-39722.514417471226,-17295.75750777215,-29606.159580488158,-29799.904501426758,-25271.552833503825,-53340.471189078235,-51782.17462088759,-57807.556725449176,-45050.991481660785,-26116.02409076978,-19683.773181888246,0
57,47033.680621824344,25969.754275054253,-58688.23780873273,-56976.94354974551,-53531.66801114893,-39736.57366473361,-17275.193902873267,-29620.15177251718,-29796.395277547275,-25273.340973060247,-53341.879348978924,-51850.79447636539,-57791.128193274526,-45037.33456579859,-26135.49246019035,-19681.828580120633,0
58,47373.3824340561,26001.694917880886,-58661.50512236418,-56957.76575300286,-53535.62426991753,-39734.04791761016,-17298.216199662234,-29618.3412812163,-29829.073527940935,-25301.973557707497,-53370.71309932627,-51773.34568182775,-57833.46239727287,-45076.87480174003,-26103.909445275003,-19694.211446548874,0
59,46865.349634331425,25993.491827665788,-58649.681049547326,-56949.45090406548,-53508.3774934265,-39721.21801629281,-17260.28528932158,-29607.99242353349,-29778.022143605012,-25249.782234404356,-53306.49653750617,-51863.73613640501,-57787.39545195049,-45036.99928963176,-26114.615930869095,-19682.745001643303,0
60,47415.02373397633,25949.07891143309,-58675.45261090429,-56956.22348263544,-53537.45711296286,-39734.20437982135,-17281.40768783184,-29618.76596436095,-29817.696490013182,-25280.87351094169,-53336.69374426529,-51734.07366681977,-57810.127176061535,-45057.45113580837,-26062.893994199516,-19673.089048038608,0
61,46711.36846677881,25959.405417371443,-58680.794677829115,-56953.34010760071,-53524.426045945416,-39731.455115253346,-17261.93931841127,-29616.06140328186,-29797.401106047764,-25250.296324526826,-53348.875444993435,-51884.03152037043,-57798.593675922595,-45044.50947576875,-26116.091146003146,-19695.396089005004,0
62,47435.185007475025,25961.595888328065,-58681.95696854079,-56953.22834887843,-53537.09948505157,-39732.03626060918,-17264.04038239007,-29618.833019594316,-29814.56724578944,-25332.349578422258,-53352.451724106286,-51742.4108675016,-57814.73163541933,-45049.15863861545,-26045.459633524377,-19675.927719584433,0
63,46570.954808110575,25988.730906096807,-58670.22230270175,-56915.61036296015,-53527.82351110262,-39707.874024852994,-17254.004449129636,-29607.366574688742,-29771.65189643525,-25233.37605397416,-53320.66754349084,-51878.890619145706,-57782.76864084824,-45041.62610073401,-26084.485779343344,-19686.90242611199,0
64,47447.43376343653,25972.682353577897,-58682.180485985344,-56911.27412453582,-53542.82153163213,-39707.15876903043,-17259.525330010096,-29615.592016648297,-29803.145504372776,-25251.03393209385,-53326.32253483803,-51680.56359059377,-57819.93959187742,-45031.74662968476,-26010.90383659647,-19652.637201862002,0
65,46492.164908905615,26079.501340329807,-58673.55271262559,-56894.75618538335,-53532.07034254913,-39686.39399843145,-17266.36496381342,-29606.56191188835,-29769.394370245263,-25211.918379297065,-53307.54706949557,-51889.41829078416,-57777.11364950105,-45005.59508867205,-26057.328409830145,-19663.544853156192,0
66,47468.48910671343,26013.228418019822,-58696.105622781,-56922.27118280783,-53566.62613947703,-39716.546501701654,-17269.248338848156,-29638.793127392906,-29777.910384882736,-25229.03981554983,-53322.94742142528,-51711.52075666437,-57818.55378372119,-45022.2247865468,-25990.3849351865,-19648.770350071234,0
67,46467.95796966052,26081.177721163956,-58703.772271129164,-56930.809549189755,-53549.45999973536,-39717.50762671323,-17286.70505126775,-29634.009854079468,-29775.451692992654,-25261.09221709874,-53318.09709287847,-51909.35604683829,-57811.26711502876,-45042.00608038975,-26053.05922663918,-19689.785801146725,0
68,47499.53567976185,26019.598665189587,-58725.43111150636,-56937.85034869318,-53559.719450440345,-39727.49885648476,-17274.053963906048,-29651.53362173243,-29816.75771674606,-25272.133978859663,-53365.66160507937,-51739.8627686337,-57830.601373982594,-45054.72422298482,-25987.054525262658,-19676.08418179562,0
69,46528.173569223116,26048.54417425921,-58676.436087660324,-56910.469461735425,-53533.724371638826,-39700.207376504826,-17275.730344740194,-29624.175086519135,-29807.61585326384,-25280.7170487305,-53339.6888780223,-51826.34166793128,-57826.30983904718,-45057.272321852724,-26030.796889161695,-19696.647786694502,0
70,47412.587393830705,26183.481655535896,-58694.406890202394,-56927.76971194384,-53559.07124985114,-39736.59601647807,-17251.03166711708,-29655.15460433419,-29797.46816128113,-25240.863888366686,-53310.09516836348,-51684.63160808464,-57804.338074247615,-45030.76315292873,-25955.85149000305,-19660.147387998986,0
71,46870.289369856044,26302.81761918278,-58653.34673563799,-56898.377167985105,-53539.78169438621,-39689.59029788856,-17269.360097570432,-29664.564688749873,-29807.973481175126,-25224.301245725306,-53320.44402604628,-51823.2794789409,-57811.53533596222,-45041.31317631164,-26011.037947063203,-19695.239626793817,0
72,48361.91068433651,26358.138186709668,-58716.021027090675,-56942.477159795424,-53554.332680026615,-39718.40169649145,-17240.41458850081,-29661.904831159693,-29802.363193316844,-25165.583213041213,-53304.66369446083,-51723.09896029222,-57800.761795134764,-45032.953623885354,-25928.13532687847,-19691.03749883622,0
73,47950.325661936484,26288.557206220295,-58659.22524442974,-56905.19445004397,-53515.86532781903,-39707.62815566399,-17267.594309758464,-29638.234333781522,-29802.51965552803,-25245.021312835375,-53301.93678163729,-51829.49326389948,-57804.91921960345,-45056.087679396594,-25967.340286653078,-19734.62340052407,0
74,48852.307957685945,26318.48619204595,-58716.021027090675,-56959.15156115909,-53536.92067109593,-39737.132458345,-17250.294059550055,-29668.87857542975,-29805.447734051675,-25292.943452947555,-53279.227409270694,-51690.77833780985,-57780.287597213704,-45019.743742912266,-25894.3618410065,-19712.875153169054,0
75,48392.510222495825,26409.50249546796,-58664.008517743176,-56910.71533092444,-53527.622345402524,-39703.31426898411,-17278.61371977493,-29645.87863038524,-29809.269882353532,-25265.450807267527,-53300.640380458884,-51761.81218168881,-57823.40411226799,-45054.21013286235,-25909.493972002743,-19726.465013797882,0
76,49008.27843049508,26424.07583285282,-58693.222247746264,-56950.1438081436,-53521.140339510486,-39719.16165580293,-17243.83440540247,-29657.54624099091,-29816.020109179037,-25235.208897019496,-53279.85325811544,-51711.744274108925,-57804.740405647804,-45030.4278767619,-25872.59124190703,-19701.453411752394,0
77,48782.92814289667,26294.502770245406,-58649.815160014055,-56922.24883106337,-53507.3269614371,-39699.60387940453,-17264.80034170155,-29627.438441209608,-29807.32528058592,-25243.6578564236,-53280.41205172683,-51706.96100079549,-57815.29042903071,-45041.33552805609,-25861.616535379475,-19721.726443973355,0
78,49110.895289289394,26330.265561373897,-58685.24267497572,-56950.523787799335,-53509.517432393724,-39704.677725395886,-17250.875204905893,-29645.565705962865,-29780.90551863975,-25250.341028015737,-53250.930100790276,-51675.33328239123,-57805.50036495929,-45024.81758890362,-25847.06554973907,-19697.072469839153,0
79,49180.945656412325,26351.41031162862,-58659.58287234102,-56919.901897895565,-53502.29781893466,-39692.60778339002,-17276.199731373756,-29630.455926711074,-29813.3378998444,-25239.90276335511,-53282.669577916815,-51684.65395982909,-57815.20102205289,-45042.36370830103,-25827.64188380741,-19698.45827799538,0
80,49280.32151226062,26376.332506696286,-58684.482715664235,-56945.27112785234,-53496.799289798655,-39704.00717306223,-17243.85675714693,-29641.90001987219,-29792.19314958968,-25199.401402402094,-53244.693964087244,-51704.0552740163,-57782.12044025904,-45018.51439696722,-25834.034482721625,-19679.660460908468,0
81,49521.16155876655,26415.04572809288,-58657.88413976242,-56929.04376137779,-53502.63309510149,-39700.38619046047,-17274.925681939803,-29635.797993635893,-29805.246568351577,-25219.98735904543,-53269.370289965904,-51654.32264260324,-57820.58779246662,-45043.70481296835,-25816.91304646886,-19692.803286648188,0
82,49315.90548943347,26358.719332065506,-58658.957023496274,-56939.347915571685,-53473.10644067603,-39706.30940274113,-17241.465120490207,-29631.81938312285,-29775.965783115123,-25229.7550713724,-53232.601670336924,-51711.8560328312,-57781.76281234775,-45023.74470516977,-25828.513601841165,-19674.072524794643,0
83,49775.099727523295,26441.666655739147,-58663.740296809716,-56929.46844452244,-53495.30172292015,-39712.500835955245,-17279.66425176433,-29634.009854079468,-29803.592539261885,-25227.296379482315,-53265.7716591086,-51626.60647947866,-57810.708321417376,-45045.24708333577,-25789.57686300002,-19680.8451033646,0
84,49290.357445521055,26408.004928589457,-58662.667413075855,-56921.33240954071,-53479.11905993451,-39701.95081257234,-17248.282402549077,-29622.498705684986,-29783.94535588567,-25178.92720448103,-53237.228481439175,-51743.126123324175,-57781.42753618092,-45023.76705691422,-25825.809040762073,-19673.871359094544,0
85,49937.12752307982,26518.19902875412,-58671.630462602436,-56925.713351453946,-53499.57090611111,-39712.56789118861,-17283.95578669975,-29637.295560514398,-29796.50703626955,-25159.749407738378,-53261.480124173184,-51613.15072931656,-57822.26417330077,-45042.76603970123,-25773.841234903484,-19660.750885099278,0
86,49601.04669344982,26476.065990455867,-58660.11931420795,-56887.55892366874,-53484.46112685933,-39672.49121338024,-17257.759542198128,-29621.939912073605,-29779.18443431669,-25129.999235868363,-53208.774710747566,-51731.033829573855,-57787.86483858405,-45011.071266063605,-25821.472802337743,-19663.94718455639,0
87,51417.52826184372,26582.281480107486,-58697.26791349267,-56905.708540166444,-53512.44551091737,-39658.119041695485,-17272.75756272764,-29611.613406135253,-29811.348594587875,-25113.235427526884,-53207.455957824706,-51600.4772902104,-57809.233106283325,-45010.579527685586,-25750.170737525314,-19620.249524146264,0
88,51217.256631524164,26605.750811785558,-58709.33785549854,-56932.418874790535,-53484.17055418141,-39665.383358643456,-17272.22112086071,-29610.965205546046,-29785.353515786355,-25087.665031870012,-53233.22751918167,-51856.717688646044,-57777.828905323615,-45024.7281819258,-25840.292971169114,-19665.288289223707,0
89,52382.60953219051,26585.12015165331,-58730.683771453354,-56938.74441847139,-53525.56598491264,-39704.9235945849,-17294.930493227304,-29650.639551954217,-29817.025937679522,-25102.931273332986,-53218.1624434188,-51654.5908635367,-57793.89980958698,-45040.17323734442,-25791.700278723274,-19667.769332858246,0
90,51490.97609412386,26679.533920232527,-58717.987980602746,-56929.490796266895,-53503.080129990594,-39677.14037622695,-17283.218179132724,-29627.438441209608,-29792.930757156704,-25144.30435231976,-53207.88064096936,-51852.604967666266,-57791.463469441354,-45040.68732746689,-25862.22003247977,-19686.678908667436,0
91,52515.6471151885,26705.08196414494,-58735.735265700256,-56950.43438082151,-53521.74383661078,-39696.988725303265,-17289.722536769215,-29654.19347932261,-29820.46810632564,-25119.73978516338,-53247.55498737752,-51698.48968964693,-57808.83077488313,-45053.67369099542,-25798.785781715607,-19669.155141014475,0
92,51379.64205499197,26824.30616906955,-58708.98022758726,-56933.62586899113,-53491.74779555175,-39663.2599429202,-17291.242455392177,-29636.893229114205,-29794.875358924313,-25120.25387528585,-53199.16346063179,-51850.90623508766,-57762.40620164946,-45035.54642624217,-25864.41050343639,-19687.215350534363,0
93,52581.3612438871,26764.29173520705,-58738.50688201271,-56945.40523831907,-53504.53299338019,-39669.18315520086,-17257.290155564566,-29646.705644930084,-29794.04834437947,-25072.19762470694,-53185.99828314761,-51695.315741934275,-57772.6880040989,-45025.08580983708,-25808.15116264238,-19651.474911150326,0
94,52305.58542079752,26925.42546098536,-58759.092838656055,-56949.78618023231,-53478.94024597887,-39656.68853005034,-17278.99369943067,-29634.322778501843,-29788.371001287822,-25066.229708937375,-53206.13720490184,-51854.907197345165,-57779.14765824648,-45028.282109294196,-25884.482369957255,-19679.168722530452,0
95,54962.649042922145,26979.874310478488,-58795.66029258494,-57005.86670707068,-53491.7254438073,-39703.403675961934,-17289.566074558028,-29675.382933066245,-29824.737289516605,-25030.24340036433,-53205.89133571283,-51755.0172513744,-57782.43336468141,-45051.483220038805,-25858.487291155732,-19684.175513288443,0
96,57190.179191849136,27055.5349654597,-58790.117059960015,-56978.55287534629,-53476.25803664423,-39658.6107800735,-17330.58152563352,-29650.52779323194,-29768.79087314497,-24988.04330683271,-53180.253884822596,-51943.554215854914,-57783.46154492636,-45100.12061597355,-25980.125484481512,-19735.04808366872,0
97,61676.956615085204,27154.955524796907,-58874.33843306761,-57029.62661142667,-53505.38235966949,-39686.55046064263,-17323.51837438564,-29670.24203184152,-29804.911292184748,-24969.111379279064,-53235.52974886057,-51945.856445533806,-57787.14958276148,-45159.01746261329,-26063.76571223327,-19795.39779369805,0
98,64852.46894985068,27009.423316648405,-58872.952624911384,-56996.5013261439,-53497.291028176674,-39645.64676828942,-17372.73691567623,-29675.785264466438,-29818.545856302484,-24970.385428713016,-53240.29067042955,-52127.24085178863,-57805.187440536916,-45225.29038492327,-26241.082100997224,-19884.245977907896,0
99,69581.80750391573,27019.414546419925,-58940.074913510674,-57055.398172783636,-53533.41144721645,-39692.96541130131,-17363.773866149648,-29692.526721063463,-29808.71108874215,-24901.78792497968,-53220.84465275343,-52102.96685731016,-57804.181612036424,-45314.02681041084,-26400.561797685838,-19978.36917380919,0
100,73522.21888568626,26934.56732446758,-58942.175977489474,-57036.22037604098,-53542.50860720976,-39676.7156930823,-17415.339340608043,-29684.88242445975,-29800.597405504872,-24929.45938461535,-53259.312004961015,-52296.108281148474,-57840.23497584283,-45415.19080581556,-26662.859518868867,-20076.82860813482,0
101,79513.76044914252,26910.42744045585,-58997.18362059398,-57107.52244085341,-53560.144133584996,-39698.2180712483,-17385.87974141595,-29732.31282619391,-29808.219350364132,-24904.157209891942,-53261.614234639914,-52374.674662908874,-57832.74714145031,-45438.973061916004,-26797.081744322986,-20206.62518818679,0
102,85051.00280654464,26752.668828090293,-58962.314899243705,-57092.502068579444,-53564.1450958425,-39677.00626576022,-17468.961175556324,-29744.226305988588,-29820.15518190327,-24917.545904820672,-53319.862880690445,-52514.216603543355,-57864.799542999215,-45503.34608594729,-27015.994729518265,-20433.51774615261,0
103,92165.60777015779,26529.464307959595,-59010.259391100335,-57156.629223421725,-53569.39775578949,-39698.97803055978,-17455.21485271631,-29761.280687007988,-29750.238925247068,-24901.229131368298,-53254.95341479223,-52571.37001411558,-57836.5022345188,-45541.83578989933,-27433.078281054295,-20662.913699497425,0
104,104699.0131973044,26126.104727519123,-59023.22340288442,-57185.57473249135,-53601.36075036058,-39750.56585676263,-17509.17196383142,-29769.9755156011,-29788.303946054453,-25038.71471151289,-53389.28739896863,-52708.922649493536,-57907.737244097865,-45632.494465410055,-28125.825896957627,-21065.200396204043,0
105,121277.45852201684,25067.973145004886,-59045.46338861745,-57254.4628089026,-53638.41994266748,-39790.26255491526,-17520.95133315937,-29824.781993005516,-29756.631524161283,-25093.87881682859,-53346.32734612553,-52853.69489833056,-57901.32229343919,-45673.44286125217,-29302.444076829444,-21407.696176492715,0
106,139131.11557139346,23147.198336982532,-59052.12420846513,-57279.586169670365,-53714.929963938,-39823.32078496466,-17621.601238441617,-29849.10069097289,-29801.625585749818,-25143.74555870838,-53486.00339722674,-52849.090438972766,-57988.62820728162,-45751.4504494012,-30642.095880758272,-22058.958954686994,0
107,158811.82656429132,20839.35837022762,-59100.940418355516,-57403.481889186136,-53756.57126385823,-39948.40114693656,-17642.00838112931,-29911.260892303097,-29830.1911151637,-25179.485998092416,-53535.668973406435,-53107.29779092048,-58048.7543998664,-45764.57092339646,-31437.84033511166,-22499.556541390008,0
108,181092.73834141952,18850.34368638321,-59095.978331086444,-57454.60032875542,-53796.60323817769,-40063.60203785921,-17702.201628947452,-29964.279230151085,-29855.694455587203,-25324.30295041835,-53595.7504625023,-53177.54932374351,-58135.54622358635,-45893.78635809259,-31919.78864905699,-22795.113658322534,0
109,187500.0,16911.73218628552,-59071.25730171887,-57467.47493356168,-53769.19999947548,-40198.740684836,-17696.680748066992,-30016.448201709773,-29799.725687471117,-25402.824628689843,-53561.4405347634,-53428.13473083195,-58093.30142656582,-45861.19751467676,-32413.06929744116,-23015.56891388523,0
110,187500.0,15207.434023312811,-58981.42564075299,-57417.63054342634,-53719.02033317332,-40346.48571568557,-17668.517550053304,-30010.212065006745,-29793.578957745907,-25473.970231291085,-53580.193648361404,-53337.207834387766,-58096.140098111646,-45864.05853796704,-32733.369795485713,-23244.629591063214,0
111,187500.0,13715.85741232126,-58936.588041375646,-57393.960046048174,-53707.55388826774,-40453.28235069303,-17635.749892681826,-30035.022501352134,-29765.169890543213,-25453.27251592547,-53495.34642640906,-53559.60769171807,-58063.68536516254,-45813.74476119814,-32978.970763560625,-23467.40942804926,0
112,187500.0,12049.221938755743,-58918.57253534467,-57406.23115375414,-53733.34780136917,-40596.10999776245,-17654.659468491016,-30133.548990911127,-29773.954126114146,-25687.943480961738,-53484.081147203586,-53480.59427506856,-58094.2625515774,-45838.59990103244,-33185.500882327666,-23623.469307836214,0
113,187500.0,10716.11919595232,-58904.423881104456,-57379.02908075203,-53733.81718800273,-40710.55092937362,-17662.907262195025,-30217.70330878536,-29729.07182324789,-25717.403080153836,-53442.976289150276,-53779.61591239166,-58092.87674342117,-45871.50166887065,-33374.3284194861,-23775.997611999228,0
114,187500.0,9248.034268383297,-58877.13240112453,-57375.02811849453,-53762.5391796278,-40886.92854487045,-17678.97816645839,-30367.52705186928,-29784.057114607946,-25892.864274127995,-53463.76341149371,-53681.089422832665,-58178.03688979589,-45896.043884282575,-33499.811112858195,-23929.64350338501,0
115,187500.0,7894.971417781284,-58841.41431348495,-57327.35184757136,-53740.88033925061,-40951.8156590242,-17664.96362268491,-30511.628748372645,-29739.37597744179,-25995.34702245558,-53454.934472433866,-53910.39596919966,-58161.496598898964,-45905.65513439836,-33533.80811617471,-23951.436454228933,0
116,187500.0,7247.039049510843,-58820.806005097154,-57339.377086088316,-53774.407955933566,-41024.25766280385,-17704.50385862635,-30708.301747834892,-29774.08823658088,-26152.077454576192,-53457.370812579495,-53776.26315072336,-58182.84251485378,-45938.42279176984,-33546.861534936615,-23998.41982107399,0
117,187500.0,6976.180610201432,-58794.56505710662,-57329.05058014996,-53798.07845331174,-41043.48016303541,-17716.819669821223,-30834.52204877401,-29783.341858785378,-26307.645595985126,-53448.47481828628,-54000.987589477016,-58203.60728545276,-45930.309108532565,-33556.51748854131,-23966.345067780625,0
118,187500.0,6824.412265349897,-58783.545647090155,-57333.275059852014,-53823.626497224155,-41063.95436095648,-17736.489204941896,-30983.407018590813,-29800.19507410468,-26408.31785301183,-53496.08403397608,-53870.27458790238,-58242.14169289371,-45938.13221909192,-33525.00152885932,-23834.983865616785,0
119,187500.0,6831.006029964213,-58735.82467267808,-57285.79995462894,-53851.454419071015,-41046.74351772589,-17757.90217613008,-31065.19205155278,-29807.705260241662,-26445.935838930112,-53551.44930499188,-54078.6151979703,-58236.441998057606,-45937.506370247174,-33506.67309840597,-23664.752979845165,0
120,187500.0,6739.810912586559,-58698.07257629307,-57275.048765545944,-53861.713869776,-41066.65892203557,-17775.671812972047,-31214.255835325224,-29838.885943756814,-26522.82583985637,-53488.32797865009,-53930.75840839844,-58288.74508008303,-45942.98254763872,-33473.033723000735,-23488.040088181508,0
121,187500.0,6620.83257685096,-58671.630462602436,-57267.04684103094,-53908.630181387685,-41091.29054442532,-17875.82997987628,-31285.155568737457,-29862.399978923797,-26566.948183411147,-53501.87313579001,-54050.80962786789,-58309.979237315565,-45941.641442971406,-33474.084254990135,-23328.470984515072,0
122,187500.0,6672.688623987273,-58672.27866319164,-57251.46767514559,-53892.24635270195,-41086.84254727871,-17823.28102866185,-31295.035039786704,-29902.72252592117,-26587.154160398743,-53600.51138407128,-54035.02929628245,-58332.219223048596,-45941.26146331566,-33456.15815593698,-23162.419874956595,0
123,187500.0,6361.105306280292,-58583.07285107051,-57183.27250281245,-53869.358166379716,-41071.17397441554,-17837.764959068892,-31275.790187810682,-29889.110313547888,-26624.593332361383,-53552.097505581085,-54064.041860585436,-58294.82475457487,-45893.47343367022,-33366.192384504364,-22938.43304376996,0
124,187500.0,6037.519101800812,-58601.40128152386,-57154.595214676294,-53916.07331229131,-41079.868803008656,-17859.692020379545,-31299.885368333504,-29965.799148774047,-26687.289975558517,-53540.02756357522,-53994.63969405171,-58305.575943657874,-45899.64251513988,-33306.1108954085,-22785.658870417938,0
125,187500.0,5952.94010078193,-58579.630682424395,-57127.25903120745,-53945.44350450558,-41082.595715832205,-17894.560741729827,-31288.173054238923,-29998.70091661226,-26728.48424058965,-53559.294767295694,-54088.85229693083,-58307.25232449202,-45921.74839040618,-33228.080955515026,-22643.501775682187,0
126,187500.0,5918.652524787489,-58632.51490980565,-57157.07625831083,-53976.2889118539,-41138.27391127037,-17908.21765759202,-31339.179735085934,-30023.310187257553,-26747.8632030324,-53622.41609363748,-54117.84250948936,-58326.206603790124,-45950.917416920354,-33139.43393700528,-22527.60798068142,0
127,187500.0,5538.404648113805,-58604.374063536416,-57103.476775107,-53979.462859566556,-41113.93286155854,-17924.199154877562,-31324.33817676761,-30097.137999193434,-26850.524765315626,-53698.65789397453,-54184.62952192182,-58327.43594973516,-45944.43541102832,-33045.82483122645,-22374.297365462466,0
128,187500.0,5223.513272227439,-58591.722976174715,-57081.10267890724,-53969.806905961865,-41132.88714085664,-17876.701697910037,-31317.744412153294,-30117.835714559045,-26880.99019300821,-53670.09236456065,-54131.6782393072,-58328.59824044684,-45920.094361316485,-32941.911571253724,-22254.246145993013,0
129,187500.0,5041.033630494312,-58600.01547336763,-57050.369030281196,-53982.61445553476,-41125.08638204174,-17880.568549700805,-31313.452877217875,-30194.122218385008,-26861.007733465165,-53679.65891118752,-54173.07367003843,-58322.362103743806,-45912.36065773495,-32831.71747108906,-22137.57003993631,0
130,187500.0,4324.928441635185,-58580.99413883617,-57006.55961114879,-53953.82540867632,-41113.86580632518,-17862.038953547355,-31318.1914470424,-30229.437974624394,-26845.607381535458,-53695.03691137277,-54267.26392117309,-58306.20179250262,-45891.148852246864,-32738.153068799147,-22020.715119923963,0
131,187500.0,4051.3654412466817,-58555.26728096811,-56991.002797007895,-53947.94689988458,-41096.27498343885,-17858.99911630143,-31307.395554470488,-30315.89452217752,-26820.193448089773,-53686.453841501934,-54132.9299369967,-58301.239705233544,-45881.13527073089,-32648.924904933563,-21940.360598607138,0
132,187500.0,3629.699782097314,-58574.89211259987,-56966.3488228737,-53924.365809484225,-41107.0038207774,-17844.336371938753,-31328.406194258478,-30406.866122110623,-26814.02436662011,-53686.54324847976,-54212.3456850464,-58266.34863213881,-45852.94972097275,-32580.416808178048,-21873.886510597054,0
133,187500.0,3433.2726518240756,-58591.991197108175,-56976.85414276769,-53957.356984300255,-41119.18552150554,-17887.20701780403,-31383.324430385168,-30472.647306042592,-26829.961160416744,-53697.76382419632,-54077.45290725862,-58274.93170200965,-45848.94875871525,-32524.11276389513,-21805.13254465253,0
134,187500.0,3339.3729733673304,-58621.160223622355,-57009.44298618352,-53973.76316473045,-41181.502185046935,-17898.472297009506,-31443.092995058658,-30550.05139709132,-26900.391507195414,-53766.517790140846,-54279.66913934579,-58273.411783386684,-45871.00993049263,-32496.262490303816,-21738.881974087,0
135,187500.0,3283.1806878066886,-58634.23599412871,-57003.296256458314,-53982.61445553476,-41202.84810100176,-17897.332358042284,-31439.4720124569,-30623.610988093733,-26991.117237939507,-53823.02300012386,-54188.02698707903,-58281.190190457135,-45911.578346679016,-32438.863210542586,-21654.41473179039,0
136,187500.0,3263.9581875751246,-58598.24968555566,-56962.32550887174,-53965.69418498209,-41164.24663832744,-17873.14777054164,-31452.70424517444,-30618.559493846835,-26946.927839151365,-53796.06679631076,-54370.32781485651,-58274.66348107618,-45896.267401727135,-32380.346343558595,-21538.49858504517,0
137,187500.0,3328.6664877732383,-58618.45566254326,-56955.39646809059,-53972.533818785414,-41183.37973158118,-17887.318776526306,-31466.964658136927,-30640.464203413037,-26984.43406634737,-53837.97631716446,-54234.92094694626,-58286.04051900393,-45894.83689008199,-32313.894607292965,-21439.81563327499,0
138,187500.0,3353.6333863298164,-58614.722921219225,-56939.54908127178,-53949.08683885179,-41184.87729845969,-17866.06226754931,-31476.21828034142,-30626.829639295298,-26958.684856734857,-53859.635157541656,-54424.30727771608,-58264.761658282485,-45870.69700607026,-32277.90829871992,-21341.020922782533,0
139,187500.0,3478.1102512014213,-58643.06493318855,-56965.52180832885,-53979.12758339973,-41216.63912733068,-17876.142904298653,-31493.742047994383,-30614.96086298953,-26997.219264175805,-53925.88572810718,-54225.37675206384,-58280.11730672328,-45844.34429935745,-32246.414690782392,-21251.30102053893,0
140,187500.0,3675.0291198526766,-58621.67431374483,-56936.621002748136,-53957.80401918937,-41163.30786506031,-17862.10600878072,-31467.32228604821,-30607.271862896905,-26946.57021124008,-53960.665042479646,-54408.99633276419,-58304.30189422392,-45874.31798867202,-32248.24753382773,-21148.728865233526,0
141,187500.0,3708.824957469101,-58634.571270295535,-56933.60351724667,-53961.067373879836,-41149.069803842285,-17866.509302438415,-31489.1822921255,-30606.601310563245,-26930.476955232258,-53972.332653085316,-54181.47792595362,-58316.908278096715,-45836.141209142355,-32198.581957648035,-21027.15772714111,0
142,187500.0,3855.944139473932,-58612.15247060687,-56903.49571746537,-53934.60290844476,-41076.53839308481,-17878.378078744183,-31485.114274634634,-30582.70729574052,-26903.453696185792,-54030.22367122456,-54300.65742738932,-58329.17938580268,-45825.92646192628,-32168.004771233176,-20905.65364428206,0
143,187500.0,4045.2634150103827,-58651.424485614836,-56919.477214750914,-53974.768993230944,-41017.708601678445,-17867.716296639002,-31512.38340287011,-30603.53912157287,-26973.794635986644,-54153.5829488734,-54176.046452050985,-58366.484447298586,-45807.70979019521,-32138.567523785536,-20801.762736053795,0
144,187500.0,4024.4762926669473,-58615.92991541981,-56890.755223125845,-53958.25105407847,-40940.37156586308,-17861.97189831399,-31501.118123664633,-30537.489716707438,-26908.81811485507,-54130.2253759176,-54257.764429779585,-58360.27066234001,-45799.77492091357,-32088.074933060998,-20679.18576946089,0
145,187500.0,4105.031979683874,-58626.971677180736,-56895.6279034171,-53954.02657437642,-40868.55541092818,-17822.43166237255,-31489.919899692526,-30545.871620878177,-26955.42150204438,-54148.62086160432,-54031.76594159198,-58419.100453746374,-45735.98304223813,-32003.361821575385,-20500.505924285168,0
146,187500.0,4184.268913777937,-58588.861952884436,-56866.45887690293,-53939.38618175819,-40762.29521778765,-17837.38497941315,-31463.0754546017,-30521.955254310997,-26895.40706818188,-54166.07757402391,-54131.74529454056,-58400.660264570746,-45701.80722496596,-31960.692341410202,-20317.512192429567,0
147,187500.0,4188.091062079795,-58630.8385289715,-56924.97574388692,-53965.269501837436,-40741.999833822236,-17860.228462246476,-31464.28244880229,-30491.26630917386,-26870.864852769955,-54241.73822900513,-53928.92556535311,-58385.46107834114,-45660.523552957005,-31920.21333220164,-20149.695295059122,0
148,187500.0,4098.169994136095,-58577.5743219345,-56890.79992661476,-53968.95753967256,-40625.301376021074,-17850.840729575244,-31402.65868933901,-30545.357530755704,-26832.59866626247,-54276.38343291086,-53983.77674624643,-58393.46300285614,-45719.28628913001,-31922.85083804737,-20085.232864050016,0
149,187500.0,4221.64103050721,-58582.46935397021,-56890.55405742575,-53955.30062381037,-40569.84669802746,-17817.871906503668,-31407.97840451937,-30571.352609557227,-26836.89020119789,-54273.83533404295,-53849.39805858112,-58369.83720896688,-45700.68963774319,-31865.608020497326,-19979.509112776414,0
150,187500.0,4330.918709149207,-58577.70843240124,-56866.078897247186,-53982.27917936793,-40530.999366164135,-17841.028313759365,-31393.762695045796,-30638.921933045618,-26816.773631188113,-54348.288994823575,-53860.261006386405,-58372.31825260142,-45698.72268423113,-31841.87046788579,-19921.483984170438,0
151,187500.0,4523.769560309596,-58601.80361292406,-56886.418984701515,-53994.01384520696,-40506.97124087468,-17827.684322319546,-31403.93273877296,-30651.818889596332,-26772.271307977597,-54336.1743493288,-53805.9015638711,-58373.45819156864,-45715.48649257261,-31809.482790170052,-19853.981715915408,0
152,187500.0,4482.865867956384,-58606.184554837295,-56877.120659008106,-54024.25575545499,-40478.562173671984,-17848.873776063178,-31369.5557558007,-30623.856857282743,-26747.729092565667,-54354.4804280377,-53837.953965420005,-58374.55342704695,-45722.728457776124,-31803.49252265603,-19817.190744541975,0
153,187500.0,4447.728925672642,-58583.11755455942,-56850.9691179954,-54019.36072341928,-40439.692490064204,-17813.446261101515,-31367.07471216616,-30585.21069111952,-26733.133403436354,-54308.12291003739,-53730.19620540097,-58385.23756089659,-45700.06378889845,-31752.86582146476,-19748.36972336408,0
154,187500.0,4536.308888949024,-58586.31385401653,-56847.281080160275,-54036.638621883234,-40432.15995218277,-17871.314927496307,-31367.365284844076,-30564.065940864795,-26706.91480719028,-54339.30359355255,-53641.32566944667,-58392.27836040001,-45701.24843135458,-31739.27596083593,-19722.173478862464,0
155,187500.0,4616.10461665447,-58588.61608369542,-56827.03039968377,-54023.4510926546,-40374.35834102134,-17840.447168403527,-31365.39833133201,-30529.688957892533,-26625.9344370287,-54300.65742738932,-53608.870936497566,-58373.4805433131,-45669.93363737269,-31696.829998115303,-19662.807245589167,0
156,187500.0,4563.220389273213,-58574.19920852175,-56790.5523527327,-54030.134264246735,-40355.78404137898,-17868.208035017018,-31357.083482394635,-30491.22160568495,-26555.772311183493,-54288.05104351653,-53439.57882399307,-58384.589360307386,-45618.569328614394,-31674.590012382272,-19604.53624779418,0
157,187500.0,4590.422462275322,-58584.14573480436,-56780.717585172366,-54025.50745314449,-40352.36422447732,-17834.14397646713,-31313.944615595894,-30408.564854689226,-26433.172992846132,-54280.920837035286,-53455.96265267881,-58364.04810715296,-45618.27875593648,-31642.045872455346,-19566.9182618759,0
158,187500.0,4386.507497609556,-58585.55389470505,-56771.57572169015,-54047.50156968851,-40345.59164590736,-17846.705656851012,-31295.504426420266,-30378.01002001882,-26415.537466470894,-54265.31931940548,-53334.123293652934,-58367.78084847699,-45612.55670935592,-31621.951654190023,-19539.1126917735,0
159,187500.0,4409.753311843075,-58600.17193557882,-56772.91682635747,-54029.77663633545,-40328.29139569896,-17835.596839856727,-31282.674525102917,-30335.72051950938,-26376.64543111866,-54225.622621252856,-53409.403968978404,-58367.57968277689,-45632.203892732134,-31610.2616918399,-19535.782281849657,0
160,187500.0,4040.7036591415003,-58583.36342374843,-56749.33573595712,-54027.42970316765,-40320.848264795335,-17850.77367434188,-31249.95157122035,-30271.101626289088,-26391.03995454788,-54197.705292428174,-53244.24692919814,-58351.48642676907,-45649.30297724044,-31568.66509540857,-19548.58983142255,0
161,187500.0,3639.5792531465595,-58582.22348478121,-56739.76918933025,-53989.096461426794,-40327.64319510975,-17832.266429932886,-31237.56870479211,-30166.406055260428,-26404.093373309777,-54118.155433911736,-53419.61871619448,-58324.15024330023,-45638.8200090909,-31529.460135633963,-19628.296152150175,0
162,187500.0,3102.1315577187015,-58598.67436870031,-56754.65545113748,-54000.74172028801,-40396.59832675437,-17857.21097674501,-31250.33155087609,-30168.574174472593,-26396.426724961606,-54084.538410250956,-53345.030944947124,-58337.58364171787,-45684.641085224284,-31499.777018997316,-19766.787560795256,0
163,187500.0,2271.764251204044,-58599.70254894526,-56729.91207002546,-53976.15480138717,-40483.99364757462,-17792.837952713722,-31153.034407262137,-30331.183115384953,-26475.507196844483,-54005.90497325719,-53579.47839253883,-58319.74694964254,-45739.469914373156,-31468.59633548216,-19941.46644371348,0
164,187500.0,1501.8137099520816,-58591.34299651897,-56712.835337261604,-53973.360833330255,-40613.94668983778,-17783.696089231504,-31152.386206672934,-30779.62616439178,-26499.825894811856,-54031.318906702865,-53525.92361282392,-58334.946135872146,-45779.993627070624,-31411.50998014331,-20238.61053450233,0
165,187500.0,606.9616206838633,-58602.921200146826,-56694.70807250835,-53954.004222631964,-40785.98806691028,-17778.46578102896,-31115.461124832767,-31436.476878699887,-26480.111656202276,-53966.56590301584,-53869.89460824664,-58291.13671673975,-45849.59695930445,-31388.420628120977,-20533.452395612287,0
166,187500.0,-190.54862148149272,-58636.60527904097,-56730.15793921446,-53981.80979273436,-41014.10997082114,-17765.837045411714,-31095.880996689917,-32183.98626851872,-26617.060794479945,-53943.38714401569,-53821.32426754526,-58312.72850188357,-45959.05345190209,-31373.44495933592,-20730.035988096715,0
167,187500.0,-908.8666330416958,-58632.470206316735,-56702.19590690087,-53967.48232453851,-41134.116486801686,-17761.143179076098,-31095.612775756454,-33000.7413626601,-26624.682739339205,-53870.98984372495,-54145.51396912503,-58311.20858326061,-46060.21744730681,-31362.96199118638,-20856.27864078029,0
168,187500.0,-1506.3734658209642,-58681.04054701812,-56755.57187266015,-53992.42687135063,-41299.78761670442,-17765.680583200527,-31154.621381118464,-34071.27816334703,-26645.335751215905,-53950.11501909674,-54074.74834617953,-58316.416539718695,-46131.22893944132,-31355.76472947177,-21105.478239712505,0
169,187500.0,-2117.5148627179697,-58655.91718625036,-56700.519526066724,-53976.91476069865,-41316.573776790356,-17800.1022696617,-31248.18578340838,-34997.37799136376,-26791.136180297875,-53978.76995548844,-54285.54764813753,-58295.785879586445,-46168.623407915045,-31383.34678212962,-21308.007396222045,0
170,187500.0,-2368.346138995426,-58669.01530850116,-56720.14435769849,-53986.83893523681,-41375.56003040791,-17792.748545735903,-31326.215723301855,-36275.3613323404,-26821.26633182363,-54067.61813969829,-54152.10773373935,-58252.468198832066,-46220.14417888453,-31367.611154033086,-21452.846700292434,0
171,187500.0,-2304.6883707867114,-58649.77045652515,-56680.42530780141,-53971.32682458482,-41343.17235269217,-17809.132374421642,-31298.946595066383,-38728.33117584362,-26828.77651796061,-54143.9269952687,-54342.4775412652,-58213.017369868445,-46343.749325722376,-31390.968726988882,-21523.187640093285,0
172,187500.0,-2086.5576966473695,-58657.012421728665,-56663.482685504285,-53957.06641162234,-41339.41725962368,-17808.886505232633,-31313.497580706786,-41058.85816322067,-26861.544175332092,-54166.68107112421,-54279.1103457344,-58178.03688979589,-46352.779430482326,-31366.314752854676,-21409.707833493692,0
173,187500.0,-1822.9188707970227,-58646.32828787903,-56629.79860661014,-53988.0906329263,-41326.87793098425,-17885.59769220325,-31351.29438058071,-42244.59585483025,-26945.542030995137,-54163.4847716671,-54401.642608838396,-58204.344893019785,-46370.41495685756,-31395.148503202025,-21265.695543968148,0
174,187500.0,-1078.2258007795574,-58693.356358212994,-56660.21933081381,-53996.27137139695,-41354.57174236438,-17932.871631726222,-31397.003697991815,-42112.072361954735,-26978.846130233545,-54207.33889428841,-54422.22856548173,-58195.58300919331,-46392.677294335044,-31400.60232884912,-21105.210018779042,0
175,187500.0,-314.73491367517875,-58662.01921248665,-56609.48087090026,-53995.8466882523,-41294.8478811798,-17967.896815287688,-31396.981346247358,-41554.15046860582,-27031.551543659156,-54246.14152266282,-54466.90970264789,-58204.27783778642,-46363.77648875433,-31431.514791430807,-20984.063563831278,0
176,187500.0,416.23418524672815,-58678.49244815022,-56594.684016070845,-53984.24613287999,-41280.58746821731,-17961.638326840202,-31427.580884406674,-40692.62483032046,-27042.861526353543,-54255.171627422766,-54379.67084403883,-58176.13699151719,-46330.114761604644,-31430.821887352693,-20818.571247884185,0
177,187500.0,1192.845546346372,-58642.14851166589,-56567.19137039082,-53987.151859659185,-41250.92670332512,-17981.37491719424,-31437.79563162275,-38929.161599774554,-27011.457325393836,-54277.00928175561,-54485.12637437897,-58162.99416577747,-46297.5259181888,-31466.56232673673,-20669.440408878378,0
178,187500.0,2106.9424875906097,-58651.13391293692,-56545.33136431353,-53972.55617052987,-41244.39999394417,-17949.993067978987,-31466.584678481184,-37815.932967177985,-27010.697366082357,-54254.054040200004,-54506.62875254497,-58148.5772906038,-46296.16246177703,-31498.771190496827,-20530.68077929983,0
179,187500.0,3138.587252925307,-58624.69179924629,-56484.5346193951,-53949.109190596246,-41209.7771417829,-17949.65779181216,-31452.16780330751,-36472.19079401383,-26989.127932682986,-54269.05206072951,-54321.77982589958,-58130.0700461948,-46287.35587446164,-31539.54077238331,-20382.801637983517,0
180,187500.0,3894.00916028132,-58678.24657896121,-56509.50151795167,-53967.68349023861,-41237.40389792966,-17958.732600061012,-31513.1880656705,-36548.253780395244,-26911.433268956338,-54272.94126426474,-54460.02536535566,-58112.635685519665,-46292.63088615309,-31585.272441538866,-20217.644598203256,0
181,187500.0,4632.086113940014,-58698.117279781975,-56503.91358183785,-54024.12164498826,-41251.64195914769,-18099.012148262518,-31624.723270502484,-33889.91610883667,-26949.67710371937,-54283.87126730338,-54467.06616485908,-58136.529700342384,-46319.8329591552,-31683.910689820135,-20108.590437005812,0
182,187500.0,5334.109703792299,-58690.18241050034,-56482.81353507203,-53931.76423689893,-41253.25128474847,-18025.251391560007,-31632.524029317385,-32659.18435563855,-26938.56828672508,-54290.88971506235,-54431.45983594177,-58123.14100541366,-46320.21293881094,-31743.768661471448,-19976.223406341483,0
183,187500.0,6059.4908666003785,-58675.07263124856,-56455.65616555884,-53910.664190133124,-41226.876226291206,-18045.725589481066,-31629.037157182356,-30745.584457586345,-26906.98527180973,-54344.08686686598,-53932.613603188234,-58093.25672307691,-46315.49672073087,-31716.968919869534,-19818.665959676026,0
184,187500.0,6723.360028667454,-58667.47303813375,-56442.55804330803,-53901.74584409545,-41220.57303435481,-18083.187113188163,-31623.493924557442,-32161.567468830046,-26863.242907910695,-54391.60667557796,-53636.900024044524,-58034.78455958183,-46278.88456331308,-31758.0961296673,-19619.93659972389,0
185,187500.0,7143.863397105146,-58685.890875564924,-56436.74658974965,-53946.98577487299,-41241.85189507627,-18164.68157347221,-31658.608515096726,-32271.649810272436,-26852.782291505613,-54516.97761022778,-53213.669742783284,-58039.56783289526,-46254.63292057907,-31792.54016787293,-19440.65325744787,0
186,187500.0,7786.476050195223,-58703.10171879551,-56467.14496220887,-53951.769048186434,-41264.20363953157,-18217.789318298022,-31698.193454527078,-32200.61596639347,-26787.649308162847,-54562.284596238685,-53387.119279756465,-58020.23357394142,-46241.98183321737,-31825.218418266588,-19227.12704266632,0
187,187500.0,8208.901668656072,-58730.773178431176,-56451.722258534704,-53966.61060650476,-41275.35716001477,-18303.284740839572,-31749.848335963292,-30066.76197847867,-26777.479264435682,-54595.007550121256,-53368.41086964737,-58048.21795799947,-46274.41421442202,-31864.803357696936,-19070.128389612244,0
188,187500.0,8704.506898463595,-58712.9588381003,-56425.235441355166,-53962.65434773616,-41288.58939273231,-18335.828880766498,-31754.631609276727,-29669.370313807765,-26726.62904579986,-54507.45576708982,-53615.62116332307,-58013.215126182455,-46232.50469356831,-31864.088101874368,-18872.941300027527,0
189,187500.0,9249.621242239624,-58720.93841087084,-56415.870060428395,-53970.81273446235,-41293.97616314604,-18399.576055953035,-31779.978487489047,-27913.774897310126,-26689.323984303952,-54489.999054670225,-53558.06542135065,-58037.80204508329,-46247.86034200911,-31842.809241152914,-18750.565499134722,0
190,187500.0,9679.19941892617,-58711.86360262199,-56399.441528253745,-53978.36762408825,-41296.25604108048,-18477.114257468493,-31787.511025370484,-27628.767803760507,-26635.27746621102,-54441.29460350211,-53779.45945018047,-58015.58441109472,-46182.883820877534,-31833.24269452604,-18596.897256004486,0
191,187500.0,10096.014749528737,-58714.43405323435,-56416.004170895125,-53988.85059223779,-41322.94402396012,-18556.708819473843,-31820.97158682008,-25684.881291971364,-26616.211428190643,-54462.97579562376,-53643.51614040329,-58016.00909423937,-46211.29288808023,-31825.307825244407,-18512.944103830352,0
192,187500.0,10406.748700946415,-58644.160168666866,-56361.890597568825,-53966.320033826836,-41276.60885770427,-18560.5309677757,-31794.37301091826,-24286.37734489171,-26569.384523556775,-54449.050658828106,-53764.2379122064,-57987.488268314395,-46163.728375879335,-31785.119388713767,-18379.705355132264,0
193,187500.0,10744.349449199373,-58672.524532380645,-56382.811830378996,-54006.21789767956,-41297.84301493681,-18591.309319890657,-31812.0085372935,-22289.98658537705,-26520.568313666383,-54415.411283422865,-53595.303427613195,-57984.984872935405,-46146.22695997083,-31758.47610932304,-18301.854229194432,0
194,187500.0,10951.773637744624,-58627.91045044785,-56346.73611482813,-53966.029461148915,-41282.800290918385,-18566.208310867347,-31780.157301444688,-21230.02215981748,-26419.091393839288,-54385.86227725295,-53741.17091192853,-57973.94311117448,-46100.56234604864,-31739.9912166585,-18220.80680379949,0
195,187500.0,11188.97034990434,-58640.60624129847,-56363.16464700278,-53961.17913260211,-41297.10540736978,-18577.920624961927,-31832.482735214562,-18819.67709299053,-26389.54238766937,-54345.986765144684,-53716.047551160766,-57943.14240731507,-46086.70426448635,-31707.84940813177,-18184.485219059614,0
196,187500.0,11459.895844447117,-58634.28069761762,-56328.43003611923,-53961.559112257855,-41281.72740718453,-18583.642671542486,-31823.653796154715,-18854.67992480754,-26358.272297176398,-54292.141412751844,-53819.357314033194,-57942.404799748045,-46084.78201446319,-31709.70460292156,-18169.42014329674,0
197,187500.0,11666.202445769602,-58661.61688108646,-56322.41741686075,-53965.85064719328,-41278.01701760495,-18572.511502803743,-31843.368034764295,-17592.0522322717,-26320.07316590228,-54295.33771220896,-53589.11199439907,-57931.161872287026,-46028.43326669136,-31693.052553302357,-18143.402712750758,0
198,187500.0,11903.577971884963,-58601.24481931268,-56257.999689340555,-53938.626222446714,-41232.37475542721,-18529.171470304904,-31777.631554321237,-17141.552822774986,-26236.298827683786,-54291.06852901799,-53502.76720556822,-57946.51752072782,-45997.09612096502,-31679.03800952888,-18079.744944542046,0
199,187500.0,12202.689016185883,-58627.932802192314,-56261.03952658648,-53923.56114668383,-41221.288290177385,-18547.544604247167,-31814.623691394772,-17696.971320744913,-26167.209585572433,-54333.64860220535,-53252.65118511334,-57916.43207269098,-45959.20991411328,-31647.365587635708,-18046.10556913681,0
200,187500.0,12567.625947907682,-58605.40224378136,-56214.257325441526,-53930.08785606478,-41170.259257585916,-18542.67192395591,-31748.596638273793,-17551.059132940667,-26161.912222136525,-54420.90981255887,-53151.68835540872,-57904.49624115184,-45932.52193123364,-31658.295590674355,-18052.38640932875,0
201,187500.0,12800.665235598712,-58606.676293215314,-56184.37304310477,-53916.319181480314,-41153.964835877996,-18544.370656534513,-31779.509100855485,-18499.600112390533,-26093.180607936458,-54390.4890883552,-52913.50816649296,-57870.76745876879,-45936.120562090946,-31614.128543630668,-18001.71500464857,0
202,187500.0,13084.621797158934,-58633.252517372675,-56202.1650316912,-53958.87690292322,-41183.6703042591,-18604.452145630377,-31807.649947124715,-18174.203416610173,-26098.142695205534,-54423.323800960046,-52864.60254962475,-57878.65762456151,-46002.43818788984,-31630.847648483235,-18016.310693777883,0
203,187500.0,13241.732208935287,-58666.51191312217,-56218.235935954566,-53970.45510655107,-41224.506941378946,-18591.95752047986,-31814.19900825012,-21142.67154248614,-26069.666572769474,-54427.25770798418,-52898.934829108104,-57880.669281562485,-46060.35155777354,-31641.285913143864,-18039.645914989225,0
204,187500.0,13530.717912997952,-58632.17963363882,-56200.28748515696,-53935.899309623164,-41187.49245256096,-18537.642781453465,-31737.778393957426,-20061.16003527165,-26077.757904262297,-54450.48117047324,-53098.35709313835,-57914.19689824545,-46184.224925544855,-31638.58135206477,-18107.751680344543,0
205,187500.0,13763.332517544331,-58655.31368915006,-56195.39245312124,-53911.40179770015,-41185.65960951562,-18535.385255263478,-31788.0027637485,-18829.48950880641,-26128.630474642574,-54468.899007904416,-52875.443145685575,-57880.62457807358,-46207.426036289464,-31570.20736577599,-18075.09578169534,0
206,187500.0,13714.985694287503,-58665.50608462168,-56195.6159705658,-53982.86032472376,-41221.556511110844,-18587.710689033353,-31817.708232129604,-14331.02212322022,-26203.061783678746,-54522.83376727507,-52887.75895688045,-57939.99081134687,-46265.317054428706,-31626.913741459102,-18151.851672154866,0
207,187500.0,13876.052364832445,-58664.209683443274,-56192.21850540859,-53965.336557070805,-41280.140433328204,-18520.7225109008,-31826.29130200044,-12996.62297923839,-26137.705282891427,-54459.62303395546,-52544.74908646931,-57953.53596848679,-46351.50538104837,-31590.2568805524,-18173.55521602097,0
208,187500.0,14011.414529253785,-58664.2990904211,-56181.28850236994,-53960.91091166865,-41300.346410315804,-18497.722565856286,-31858.25429657153,-10023.595097493542,-26079.076657185156,-54461.85820840099,-52357.57557840057,-57980.60393102216,-46439.68301292456,-31574.543604200317,-18140.765206905035,0
209,187500.0,14140.160577316354,-58666.802485800086,-56168.34684233032,-53924.34345773977,-41358.34918717732,-18400.179553053327,-31865.339799563862,-9914.160956640359,-26029.05345309418,-54508.26042989021,-52285.133574620915,-57963.34838430266,-46484.02887392389,-31556.77396735835,-18053.14636864023,0
210,187500.0,14200.756156534691,-58716.87039337998,-56203.14850844724,-53964.01780414794,-41462.66477855024,-18410.774279925143,-31967.91195486927,-8587.339054028876,-26052.098101627602,-54593.532334987205,-52188.46227985171,-58014.08684421621,-46590.959619398076,-31571.660229165584,-17985.152362007186,0
211,187500.0,14396.8480106411,-58722.033646349155,-56209.16112770571,-53935.45227473406,-41473.14774669978,-18403.197038554794,-32042.410319138806,-9130.374685570561,-26039.447014265897,-54679.22892322885,-52277.06459487255,-58040.3501439512,-46666.75438484602,-31612.519218029884,-17855.7134098665,0
212,187500.0,14701.14465965565,-58723.57591671657,-56181.22144713658,-53948.99743187397,-41456.5851040584,-18422.374835297447,-32109.666718204826,-8193.188392303991,-26032.741490929307,-54888.955341453,-52045.85815022685,-58046.47452193195,-46653.07511723937,-31601.96919464698,-17730.856565339156,0
213,187500.0,15152.515787186121,-58691.56821865657,-56174.20299937761,-53946.06935335033,-41454.238170890596,-18437.64107676042,-32118.294491564575,-8396.790432547383,-25997.291624223188,-55053.71004983307,-52170.312663354,-58011.65050407058,-46672.34232095985,-31618.710651244004,-17628.552630967217,0
214,187500.0,15664.683659635028,-58718.34560851403,-56219.82290981089,-53996.62899930823,-41478.66862758024,-18492.04522276464,-32174.66559108086,-7712.827052214987,-26020.67154892344,-55399.91621970132,-52346.46676140628,-57991.62334103863,-46813.180662772735,-31623.002186179423,-17601.350557965106,0
215,187500.0,16148.308354414507,-58667.80831430058,-56191.68206354166,-53961.46970528003,-41463.15651692826,-18436.97052442676,-32116.036965374587,-7406.764615388467,-26077.646145540017,-55758.16997983098,-51979.22760000558,-57994.126736417624,-46798.87554632134,-31630.691186272048,-17473.677393636393,0
216,187500.0,16480.00824213126,-58682.76163134118,-56213.00562775203,-53996.76310977496,-41491.29736319749,-18452.46028333429,-32162.70740779727,-6201.871478780685,-26119.287445460257,-56060.83495150029,-51819.90436552816,-57992.182134650015,-46832.336107770934,-31602.080953369255,-17388.897226917416,0
217,187500.0,16694.20500924647,-58644.3389826225,-56194.27486589848,-53973.092612396795,-41469.25854316456,-18442.156129140392,-32157.566506572548,-4550.770467611607,-26105.809343553705,-56132.53934771292,-51674.9980062244,-58008.65537031357,-46884.23685839616,-31614.240302352944,-17306.598103832974,0
218,187500.0,16943.806939578884,-58701.402986216905,-56253.77520963851,-54015.40446465069,-41531.53050321704,-18460.998649716217,-32210.04840255361,-1871.1539353315754,-26110.570265122686,-56324.65259130629,-51301.41094939839,-58037.10914100518,-46953.05787957405,-31602.326822558265,-17251.590460728465,0
219,187500.0,17418.55799180961,-58657.88413976242,-56226.28256395848,-54001.85930751077,-41491.38677017531,-18442.759626240688,-32170.32935265653,1697.9279158029458,-26107.77629706577,-56302.45730906216,-51514.043094401735,-58068.06630707578,-47030.73019155624,-31619.291796599842,-17239.811091400516,0
220,187500.0,17856.495720922438,-58671.965738769264,-56241.21352925462,-54014.57745010584,-41492.459653909165,-18433.103672635993,-32195.0503820241,3600.933086983334,-26115.39824192503,-56276.261064560545,-51134.488121806164,-58099.001121401925,-46983.143327610895,-31580.06448508078,-17180.5566168495,0
221,187500.0,18243.784397099542,-58627.39636032539,-56182.96488320409,-53974.32195834183,-41463.62590356182,-18406.84037290101,-32147.12824191192,5188.21986773251,-26081.289479886233,-56444.61440379792,-50790.76299557245,-58122.04576993534,-46971.72158619423,-31550.4484236775,-17105.27594152402,0
222,187500.0,18569.069334157626,-58692.32817796805,-56243.6275176558,-54006.73198780203,-41509.089351783914,-18431.762567968675,-32205.868626340467,4413.798977589486,-26105.138791220044,-56518.0398843336,-50246.94505297483,-58135.725037542,-46994.743882983195,-31519.267740162344,-17076.933929554692,0
223,187500.0,18950.434798054077,-58641.9920494547,-56172.41485982119,-53972.042080407395,-41454.01465344604,-18411.444832258803,-32164.853175264976,5185.738824097971,-26157.777149412294,-56240.78884610997,-50057.402259993825,-58166.32457570131,-47018.30262163909,-31529.638949589607,-17015.2654666025,0
224,187500.0,19294.33873824343,-58647.66939254635,-56176.840505223336,-53979.82048747784,-41481.21672644815,-18399.665462930854,-32200.101876270997,4761.3239003806,-26134.352521223132,-55932.4018278601,-49879.86235378532,-58124.90679322562,-47005.62918253293,-31485.42719905701,-16952.702933872097,0
225,187500.0,19590.007613898233,-58648.87638674693,-56180.79676399193,-54002.50750809998,-41468.72210129763,-18400.537180964613,-32171.290477668106,6755.367726727453,-26172.95398389745,-55805.15334667604,-50054.63064368137,-58169.29735771386,-47026.70687755429,-31484.980164167904,-16959.98960256453,0
226,187500.0,19840.011875630844,-58610.386682794895,-56168.97269117507,-53930.780760142894,-41447.39853708727,-18331.40323536435,-32205.42159145136,6709.434891871798,-26165.443797760465,-55675.71439453535,-50346.16444661194,-58154.0758197398,-47008.62431628994,-31457.26400104332,-16965.197559022614,0
227,187500.0,20105.97528290454,-58609.470261272225,-56152.67826946715,-53952.30549005336,-41404.88551913328,-18336.745302289164,-32189.440094165817,9276.778611752821,-26129.569247909698,-55544.46495109379,-50214.423264792356,-58159.84256980927,-47014.458121592776,-31415.287424956256,-16975.993451594528,0
228,187500.0,20213.37541501229,-58613.85120318547,-56173.59950227732,-53962.92256866963,-41448.3820138433,-18320.540287559066,-32191.787027333623,9405.591715048757,-26114.705337846917,-55284.80473575649,-50025.68513461175,-58127.41018860462,-47007.79730174509,-31407.106686485615,-16971.478399214557,0
229,187500.0,20371.290489589035,-58584.30219701555,-56139.2001675606,-53962.69905122508,-41416.10609484984,-18366.49547415918,-32208.014393808175,11084.38653759796,-26145.908373106526,-54889.02239668636,-49780.08416653683,-58114.17795588708,-47060.390956448435,-31415.421535422985,-16986.4093645107,0
230,187500.0,20613.449289017834,-58591.432403496794,-56137.501434982,-53964.353080314766,-41421.31405130793,-18351.028066996107,-32241.65376921341,10298.722719993917,-26136.274771246288,-54369.00906193365,-49679.43426125458,-58057.963318581984,-47004.62335403244,-31408.581901619662,-16943.024628522948,0
231,187500.0,20791.860913260094,-58568.05247879654,-56106.05253053338,-53966.320033826836,-41417.871882661806,-18351.005715251653,-32207.388544963425,11705.653274733218,-26169.914146651525,-53818.3514855327,-49555.8961696501,-58029.86717580166,-47011.28417388012,-31408.894826042037,-16952.434712938633,0
232,187500.0,20967.657383401085,-58570.466467197715,-56095.323693194834,-53951.85845516425,-41402.60564119883,-18335.314790644024,-32215.971614834263,10876.783535097067,-26114.995910524834,-53487.03157747169,-49553.504532993386,-57977.653500754066,-46936.919920077315,-31391.818093278183,-16906.658340294165,0
233,187500.0,21067.34616367175,-58570.175894519794,-56097.51416415146,-53999.98176097653,-41414.25090006005,-18388.243721514194,-32224.509981216193,12253.583938310616,-26146.064835317713,-53275.2264470132,-49407.27942076677,-57966.879959926606,-46925.72169610521,-31416.516770901297,-16915.062596209358,0
234,187500.0,21218.1086800228,-58554.35085944544,-56080.86211453225,-53940.72728642551,-41414.362658782324,-18312.985397933175,-32228.9579783628,11568.055935866349,-26131.35738746612,-53022.182348034665,-49579.2537426059,-57900.96466552791,-46875.3632158474,-31394.902634013015,-16879.4339155476,0
235,187500.0,21386.730240193636,-58542.571490117494,-56072.2343411725,-53949.15389408516,-41435.82033345942,-18351.788026307586,-32250.438004784348,12851.962489123642,-26165.46614950492,-52761.270435007864,-49591.79307124532,-57903.78098532927,-46884.86270724091,-31386.654840309006,-16898.835229734806,0
236,187500.0,21522.11475635943,-58536.93885051476,-56074.67068131813,-53954.51831275444,-41438.2343218606,-18352.52563387461,-32247.755795449713,12752.653688508713,-26177.13376011059,-52406.05651212412,-49963.12260188134,-57858.07166791817,-46841.81324741999,-31385.872529253073,-16884.261892349947,0
237,187500.0,21659.354467315017,-58510.31792286848,-56051.26840487342,-53961.80498144686,-41430.880597934796,-18365.44494216978,-32264.452548557827,14153.03518212261,-26215.2881878958,-51885.819659926856,-50070.746251433644,-57869.02402270127,-46817.89688085281,-31386.654840309006,-16887.368784829236,0
238,187500.0,21856.675667366468,-58468.72132643716,-56008.86714564171,-53910.664190133124,-41390.06631255941,-18369.311793960547,-32251.041501884643,14358.492417155794,-26138.688759647463,-51223.31395427155,-50539.641146617076,-57760.93098651541,-46710.89908014525,-31361.93381094144,-16834.283391747882,0
239,187500.0,21990.853189331676,-58515.07884443746,-56025.78741619438,-53952.21608307554,-41422.34223155287,-18373.648032384877,-32256.964714165297,15687.214218045978,-26158.626515701595,-50559.19892301547,-50897.53727883545,-57754.02429747872,-46669.50364941402,-31363.520784797765,-16815.84320257225,0
240,187500.0,22137.011246324928,-58507.79217574504,-56019.30541030233,-53934.02176308892,-41414.228548315594,-18381.024108055128,-32239.686815701345,16116.658284265792,-26102.613044096597,-50109.906507719345,-51393.54484004317,-57691.95350312633,-46603.65541024869,-31403.999794006326,-16773.55370206281,0
241,187500.0,22244.612544132775,-58529.294553911044,-56023.55224174884,-53956.41821103313,-41409.46762674661,-18405.566323467057,-32256.24945834273,16877.221092846525,-26079.680154285452,-50072.154411334326,-51436.10256148608,-57660.50459867771,-46553.74396487999,-31441.64013166906,-16758.80155072231,0
242,187500.0,22367.681249103698,-58505.28878036604,-55997.22188678049,-53924.499919950955,-41401.13042606478,-18424.185326598326,-32225.85108588351,17196.53811413504,-26015.0389093207,-50437.717191900876,-51776.5196295404,-57582.58641750651,-46466.12512661519,-31471.546765750263,-16736.807434178285,0
243,187500.0,22466.028924707047,-58561.034031037576,-56025.31802956081,-53951.701992953065,-41413.133312837286,-18462.22799566126,-32256.964714165297,17664.53893954026,-26006.880522594514,-49994.057416207484,-51925.024619701464,-57535.22307100571,-46421.01930630438,-31512.070478447735,-16726.92796312904,0
244,187500.0,22638.986723302212,-58531.06034172301,-55985.35311047472,-53926.757446140946,-41367.13342274826,-18500.94121705785,-32228.51094347369,18362.360401434948,-25943.13334740798,-49425.9654791314,-52668.37658505161,-57454.086238632946,-46331.34410754968,-31581.092665325723,-16682.939730040995,0
245,187500.0,22769.163283009922,-58566.95724331823,-56024.40160803814,-53943.655364949154,-41402.493882476556,-18560.39685730897,-32253.723711219278,18587.6883372889,-25911.63973947045,-49080.74278601918,-53206.98657119114,-57413.16019453528,-46255.99637699084,-31623.315110601798,-16666.041811232782,0
246,187500.0,22952.49229103235,-58535.10600746942,-56009.42593925309,-53930.98192584299,-41396.79418764045,-18614.15280272398,-32223.437097482336,19424.068263062032,-25871.98774480674,-49009.2172037622,-53741.23796716189,-57349.21185364865,-46154.20653274137,-31672.824224570304,-16631.597773027155,0
247,187500.0,23097.62216778066,-58571.382888720385,-56037.34326807777,-53949.28800455189,-41427.41607754422,-18695.93783568595,-32259.468109544294,19703.308606542185,-25877.5086256872,-49012.03352356357,-54348.288994823575,-57292.885457621276,-46050.405031490925,-31722.243931560988,-16652.787226770786,0
248,187500.0,23252.855033022766,-58545.991307019154,-56006.78843340736,-53930.646649676164,-41417.514254750524,-18785.724793162917,-32251.980275151764,20827.69075962195,-25870.937212817338,-49256.18162824889,-55287.21872415766,-57253.43462865766,-45942.78138193863,-31775.888118253722,-16664.6336513321,0
249,187500.0,23308.644987183212,-58625.496462046685,-56074.62597782922,-53971.50563854047,-41464.7881942735,-18878.193959974524,-32311.77119156971,20765.597613525108,-25773.058923847548,-49187.20414485981,-56122.83869061932,-57196.392976807714,-45901.47535818522,-31807.426429680163,-16700.910532583064,0
250,187500.0,23367.653592545223,-58579.51892370212,-56031.33064881929,-53966.74471697149,-41437.519066038025,-18950.23363235398,-32296.840226273565,21695.05020321014,-25746.348589223457,-49441.9693281614,-56765.697212898405,-57160.58548219031,-45836.16356088681,-31849.805337167425,-16753.03480065284,0
251,187500.0,23381.735191552067,-58637.76756975264,-56065.43941085809,-53993.47740334003,-41470.242019920595,-19032.175127527134,-32352.049035078173,21445.917659511288,-25731.462327416222,-49980.780480001034,-57159.6914124121,-57070.418545057604,-45788.800214386014,-31832.013348581,-16798.98998725295,0
252,187500.0,23398.834276060377,-58640.89681397639,-56062.109000934244,-54002.105176699784,-41441.20710387315,-19116.754128546017,-32344.69531115238,22475.841340522926,-25784.033630375103,-50116.70143803376,-57411.5508689345,-57057.05220187333,-45769.376548454355,-31847.279590043974,-16931.513480128466,0
253,187500.0,23431.199602031662,-58692.7528611127,-56112.64629514769,-54022.75818857649,-41457.657987792256,-19182.1776845667,-32413.73984977482,21903.70373770043,-25753.277630004603,-50467.33325330416,-57291.05261457594,-57006.29139021533,-45732.20559742518,-31845.11147083181,-17103.599560689876,0
254,187500.0,23584.823141672987,-58662.265081675665,-56081.264445932444,-54015.248002439504,-41391.42976897118,-19219.058062917957,-32410.7000125289,22837.492565809796,-25741.43120544329,-50840.85325489679,-56887.64833064656,-56959.30802337027,-45653.259236009035,-31846.564334221406,-17235.631315187373,0
255,187500.0,23729.617742254468,-58722.81595740509,-56132.315830268366,-54025.44039791112,-41392.88263236077,-19268.410714675276,-32481.219766285394,22194.43287783061,-25683.584890792954,-51105.274391803076,-57137.65259237917,-56875.220760729404,-45548.049574857905,-31827.610054923305,-17214.754785866116,0
256,187500.0,23883.174226662428,-58732.71778019879,-56101.33631245331,-54050.139075534236,-41322.586396048835,-19340.942125432746,-32500.464618261412,23088.860283954178,-25744.538097922577,-51433.19683470688,-57058.99680364094,-56865.40834491353,-45535.957281107585,-31860.333008805876,-17271.259995849134,0
257,187500.0,23982.304213321713,-58754.868358954,-56096.642446117694,-54026.37917117825,-41257.05108130587,-19354.800206995038,-32525.90090345155,22365.960164780638,-25652.918297400272,-51694.08639598923,-57071.51378053591,-56814.93810593344,-45387.00525605742,-31854.25333431403,-17295.288121138587,0
258,187500.0,24155.597288083707,-58767.273577126696,-56057.83981774328,-54032.14592124771,-41192.94627820805,-19362.802131510038,-32530.974749442907,23364.34553436584,-25652.22539332216,-51821.424284151115,-56739.88094805252,-56782.52807647325,-45304.70613297298,-31858.768386694002,-17291.1306966699,0
259,187500.0,24235.437719278067,-58739.222137835284,-56018.9701341355,-53996.092557441305,-41118.023230793864,-19309.96260761769,-32520.983519671387,22870.371981903554,-25582.666764577243,-51696.52273613486,-56650.25045278674,-56738.04810500719,-45193.79677698574,-31859.72951170558,-17311.515487613142,0
260,187500.0,24330.365577979755,-58751.29207984115,-56001.580476949275,-53984.78257474692,-41063.82025048974,-19347.714704002705,-32525.453868562447,23632.901743996354,-25542.455976302146,-51743.37199251318,-56306.52532655303,-56730.04618049219,-45108.3460579331,-31852.196973824142,-17343.97022056225,0
261,187500.0,24425.293436681444,-58719.9102306259,-55997.33364550277,-53968.890484439195,-41028.01275587234,-19348.429959825273,-32521.408202816037,23038.54650718528,-25484.028516295974,-51854.773086878435,-56292.197858357176,-56710.108424438054,-44988.138376252464,-31837.131898061267,-17391.042994385123,0
262,187500.0,24497.37781254981,-58723.57591671657,-55970.24333122293,-53977.004167676474,-41001.86121485964,-19353.459102327717,-32516.982557413885,23794.66131861941,-25487.984775064564,-51973.751422614034,-56006.87784038518,-56730.51556712575,-44900.92186938785,-31794.82004580737,-17472.64921339145,0
263,187500.0,24632.896439182336,-58704.01814031818,-55941.4542843645,-53948.05865860685,-40973.42979591248,-19333.364884062397,-32492.932080379975,23357.215327884594,-25526.29566506096,-51990.33641699987,-56185.13300241626,-56712.45535760586,-44810.643173532866,-31729.910579909156,-17477.253672749244,0
264,187500.0,24744.386940525408,-58699.99482631622,-55941.878967509154,-53964.37543205923,-40942.45027809743,-19305.805183149005,-32469.105120790617,23975.59868998512,-25640.378968760848,-52033.92231868772,-56123.01750457496,-56715.294029151686,-44758.78712639656,-31658.966143008012,-17574.61787159656,0
265,187500.0,24783.41308634437,-58659.13583745192,-55875.62839694362,-53935.47462647851,-40911.96249866039,-19276.52439791255,-32461.28201023126,23755.344600122524,-25854.039294009126,-52041.007821680054,-56238.48661643107,-56645.98126959578,-44687.84268949541,-31550.403720188588,-17678.888759480567,0
266,187500.0,24793.985461471733,-58645.43421810082,-55785.37205283309,-53906.50676566443,-40896.15981533049,-19239.509909094562,-32454.934114805954,24288.344298403776,-26226.66522582355,-52098.78708109702,-56032.58234650879,-56615.649952369924,-44672.487041054614,-31366.91824995497,-17813.155688423598,0
267,187500.0,24885.53820676067,-58603.41293852484,-55643.66199298645,-53863.07732618777,-40835.318366923144,-19155.623812153794,-32413.114000930073,24244.624286249196,-26423.628797963716,-52185.17657341678,-56097.782385084916,-56559.70353599829,-44608.71751412362,-31185.13151229996,-17929.429463080105,0
268,187500.0,24906.459439570837,-58620.0873398885,-55577.05379450963,-53864.887817488656,-40805.72465726431,-19048.827177146337,-32399.92647170144,24896.624672010505,-26523.988130568046,-52199.772262546096,-55881.328091779724,-56529.66279145036,-44520.11519910279,-30941.877477392853,-18021.317484535874,0
269,187500.0,24929.817012526633,-58577.26139751213,-55466.12208677794,-53845.66531725709,-40723.42553417987,-18899.964559073993,-32309.893645035467,24892.10961963053,-26536.952142352122,-52162.020166161084,-55909.245420604406,-56490.32372120902,-44432.69752653808,-30719.65643401819,-18179.344317834893,0
270,187500.0,24981.18132128493,-58555.91548155731,-55362.52175122759,-53810.81894765126,-40627.98358535571,-18742.496519386354,-32273.05797017312,25110.843790870167,-26408.161390800644,-52134.03578210304,-55549.24822440722,-56442.37922935239,-44333.05344975632,-30515.71911760797,-18421.771338197155,0
271,187500.0,25072.24232819585,-58531.037989978555,-55261.938901178706,-53801.92295335805,-40557.55323857704,-18659.057457334693,-32231.103745830507,25163.102169406673,-26323.850610715224,-52080.1904297102,-55404.78889999258,-56360.214216734676,-44243.668823679545,-30318.12969662305,-18593.92447399193,0
272,187500.0,25116.0293955838,-58562.30808047153,-55231.3393630194,-53811.44479649601,-40581.91664003333,-18589.878808245518,-32216.485704956736,25196.898007023097,-26282.902214873102,-51982.4686029516,-55097.56417245438,-56331.29105940951,-44187.945924752465,-30157.152433055933,-18758.768589349816,0
273,187500.0,25230.313864983782,-58541.99034476165,-55122.95575415561,-53795.64211316611,-40514.25790956711,-18543.208365822837,-32173.682114324823,25351.527375164915,-26186.789713715283,-51935.88756750674,-54923.95817327001,-56268.95204412366,-44148.7186132334,-29986.921547284313,-18865.073485979257,0
274,187500.0,25293.032859925373,-58561.39165894886,-55065.37766043874,-53784.15331651608,-40463.67591186475,-18492.604016376023,-32179.404160905382,25474.484321413558,-26125.925913563482,-51826.16285397564,-54642.549710577696,-56199.46047061211,-44086.3572462031,-29838.304798400975,-18854.2999451518,0
275,187500.0,25377.611860944256,-58506.652236777816,-54933.1670919856,-53747.3846968871,-40393.80435869746,-18483.70802208281,-32124.64238698988,25748.71787413572,-26042.375092789545,-51679.17778243754,-54422.83206258203,-56115.90964983817,-43991.74231192378,-29728.4683261476,-18826.0920436492,0
276,187500.0,25425.35518710079,-58526.34412364294,-54876.86304770268,-53745.35068814167,-40395.927774420714,-18463.658507306398,-32114.986433385187,25561.81258700044,-25950.487071333777,-51507.874012932065,-54086.39360504074,-56024.84864292725,-43923.703601801826,-29619.972958561535,-18761.33903996218,0
277,187500.0,25496.880769357776,-58497.063338406486,-54800.241267709884,-53726.84344373267,-40366.55758220644,-18465.960736985297,-32072.808691598024,25911.349166792534,-25896.440553240845,-51363.88407515098,-53807.73440691643,-55977.64175863764,-43884.45393853831,-29546.50277453694,-18741.4236356525,0
278,187500.0,25578.44228487519,-58503.701806509715,-54741.34442107016,-53706.793928956264,-40347.37978546379,-18443.02784717415,-32064.091511260453,25620.932951084727,-25786.805246687563,-51196.04482603608,-53616.984619734845,-55883.02682435833,-43801.73013230922,-29461.096758973214,-18726.917353501005,0
279,187500.0,25627.102032554394,-58453.54449195201,-54676.30084470521,-53693.82991717219,-40315.953232759624,-18452.08030367855,-32030.362728877397,26037.86004040957,-25683.51783555959,-51041.77308580555,-53442.685716472355,-55856.36119322314,-43752.66805322982,-29384.72084816943,-18688.137076871048,0
280,187500.0,25701.399231123833,-58451.28696576202,-54634.41367559596,-53673.62394018459,-40299.97173547408,-18419.469108518257,-32005.015850665077,25685.32832686047,-25597.508322895566,-50847.938757889126,-53324.13206388141,-55788.83657322366,-43684.09290124094,-29322.806516028228,-18631.6989221214,0
281,187500.0,25768.6332784454,-58444.46968370315,-54599.835526923605,-53682.60934145562,-40285.73367425605,-18434.444777303313,-31987.2015103342,26182.900510180058,-25526.183906338683,-50729.56391925382,-52969.99102473152,-55778.644177752045,-43645.64790077781,-29269.810529924696,-18621.059491760672,0
282,187500.0,25768.923851123316,-58462.306375778484,-54589.64313145199,-53673.892161118056,-40288.751159757514,-18418.955018395784,-31976.76324567357,25858.68845685583,-25438.408605862693,-50601.42136829154,-52768.71356591149,-55717.35569445559,-43596.943449609695,-29241.602628422097,-18591.912816990953,0
283,187500.0,25766.688676677786,-58429.20344224018,-54539.575223872096,-53669.15359129353,-40234.5481794534,-18439.429216316847,-31966.503794968583,26420.946588629078,-25398.30957630987,-50468.18261959346,-52753.58143491524,-55715.5004996658,-43569.31669346293,-29191.91470049795,-18557.021743896217,0
284,187500.0,25786.96170889875,-58413.40075891028,-54520.57624108509,-53647.3606404496,-40212.844635587295,-18421.816041686063,-31946.007245303066,26038.195316576403,-25301.548874562846,-50314.40261774095,-52664.50973326084,-55652.58033902411,-43499.95923041811,-29169.607659531554,-18505.813897349108,0
285,187500.0,25832.82748852104,-58429.44931142918,-54510.87558399148,-53668.23716977086,-40209.2907082189,-18449.73337051074,-31946.52133542554,26571.26207009102,-25235.544173186325,-50182.97436034374,-52321.343400638514,-55640.62215574052,-43482.10018659833,-29127.6757869334,-18510.686577640365,0
286,187500.0,25835.844974022508,-58416.887631045305,-54472.16236259489,-53646.84655032713,-40199.344181936285,-18439.675085505856,-31925.30952993745,26195.596301030673,-25146.852451187668,-50035.47519868317,-52328.42890363085,-55591.60478015003,-43451.523000183464,-29133.062557347126,-18509.39017646196,0
287,187500.0,25845.54563111611,-58415.479471144616,-54459.041888599626,-53656.03311729826,-40192.8845277887,-18458.8081787596,-31919.766297312537,26714.045013671523,-25128.144041078573,-49907.802034354456,-52126.59265119942,-55566.324957171084,-43432.099334251805,-29083.352277678525,-18502.215266491803,0
288,187500.0,25864.254041225202,-58391.004310966055,-54413.734902588716,-53621.83494828164,-40156.96527444902,-18444.65952451939,-31877.49914854755,26403.37811748721,-25055.72438904338,-49753.55264586838,-51995.65613218024,-55517.50874728069,-43368.84389744329,-29083.173463722884,-18473.672088822375,0
289,187500.0,25882.26954725618,-58412.79726180998,-54421.28979221461,-53626.03707623924,-40165.21306815303,-18452.817911245576,-31888.54091030847,26897.195207738307,-25018.24051359183,-49612.15551044411,-51760.0687456213,-55498.19684007131,-43347.162705321636,-29025.84123919502,-18451.007419944694,0
290,187500.0,25863.96346854728,-58379.71668001613,-54373.18883814679,-53606.79222426322,-40127.70684095703,-18445.307725108592,-31851.68288370167,26623.74396607208,-24945.709102834357,-49491.769014807825,-51721.46728294698,-55472.82761011453,-43308.29302171386,-29051.16576566288,-18453.153187412405,0
291,187500.0,25854.10634924249,-58381.23659863909,-54364.53871304259,-53598.65618928149,-40127.01393687892,-18442.089073907027,-31848.64304645575,27069.325991788628,-24925.056090957652,-49338.592510055605,-51458.61076815257,-55435.053161985066,-43270.71973928449,-28994.43703823531,-18425.213506843273,0
292,187500.0,25893.534826461655,-58364.092810641865,-54328.172424813805,-53578.83019194963,-40100.080084810266,-18451.074475178062,-31827.230075267566,26868.69673355779,-24837.750177115224,-49202.17981364487,-51434.046200996185,-55399.08920515647,-43223.98224162844,-28999.868512137953,-18403.845239143997,0
293,187500.0,25885.957585091306,-58372.45236306815,-54330.65346844834,-53579.634854750024,-40102.02468657788,-18439.809195972586,-31828.593531679337,27126.971140738864,-24800.869798763968,-49036.933366886784,-51251.79007670761,-55364.8686843954,-43202.301049506794,-28951.834613303497,-18365.601404380966,0
294,187500.0,25921.809783197616,-58343.55155748744,-54300.1656890113,-53556.47844749432,-40078.711817111,-18458.4058473594,-31804.610109878795,26962.41759805889,-24741.235344557208,-48908.25437405758,-51237.73082944522,-55354.564530201504,-43192.95802032448,-28969.850119334475,-18354.470235642224,0
295,187500.0,25870.624288394964,-58370.35129908935,-54323.70207592274,-53568.950720900386,-40095.78854987485,-18470.542844598633,-31830.046395068934,27127.70874830589,-24706.456030184752,-48762.74451765353,-51073.71372863218,-55317.32652393896,-43161.196191453484,-28929.885200248387,-18322.52959281559,0
296,187500.0,25883.342430990033,-58357.0743628829,-54304.43487220226,-53574.65041573649,-40076.07431126527,-18492.7157750983,-31812.92495881617,27057.323105016127,-24674.73890480267,-48640.86045513874,-51023.399951863285,-55309.391654657324,-43147.092240702186,-28958.763654084643,-18331.023255708606,0
297,187500.0,25896.574663707575,-58366.484447298586,-54309.4193112158,-53560.837037663114,-40084.09858752473,-18474.23088243376,-31810.712136115093,27103.16653289396,-24623.53105825556,-48515.690686189024,-50889.15537466471,-55279.84264848741,-43122.930004946,-28932.925037494308,-18303.57531351749,0
298,187500.0,25914.903094160927,-58345.94319414416,-54284.206543470216,-53571.34235755711,-40058.68465407904,-18504.785717104165,-31803.090191255833,27109.492076574814,-24563.76249358207,-48423.80266473325,-50849.749249190005,-55266.85628495888,-43110.793007706765,-28948.571258613025,-18293.38291804587,0
299,187500.0,25941.07698691809,-58341.45049350864,-54285.2123719707,-53562.84869466409,-40065.88191579365,-18476.108428968004,-31800.09505749882,27155.827242830666,-24518.544914548984,-48325.32087866317,-50724.221852329,-55237.35198227787,-43080.86402188111,-28923.11262167843,-18269.220682289684,0
300,187500.0,25906.99057662375,-58324.97725784508,-54259.82079026947,-53573.46577328036,-40052.42616563156,-18500.76240310221,-31788.114522470776,27323.21945705646,-24472.589727948874,-48211.528147641206,-50608.37276081715,-55220.07408381392,-43059.78632685976,-28925.10192693495,-18279.39072601685,0
301,187500.0,25913.718451704797,-58333.53797597146,-54273.54476136503,-53566.20145633238,-40061.210401202494,-18473.80619928911,-31787.712191070583,27308.512009204867,-24419.83961103435,-48099.18828000883,-50446.74729666082,-55190.39096717727,-43026.28106192125,-28912.182618639785,-18259.27415600707,0
302,187500.0,25914.50076276073,-58338.701228940634,-54265.54283685003,-53589.715491499366,-40058.483488378944,-18510.485411940266,-31796.29526094142,27536.67861660464,-24416.755070299518,-47998.76189217113,-50356.66976650593,-55185.674749097205,-43030.86316953459,-28923.134973422882,-18270.025345090075,0
303,187500.0,25868.992611049725,-58331.74983641504,-54272.06954623098,-53568.950720900386,-40056.29301742232,-18483.484504638258,-31792.428409150652,27448.56803996182,-24403.03109920396,-47892.47934728615,-50312.569774695614,-55168.73212680008,-43010.45602684689,-28931.494525849168,-18266.359658999405,0
304,187500.0,25881.978974578262,-58301.12794651127,-54247.281461630046,-53567.25198832178,-40034.16479041157,-18495.24152222175,-31775.821063020358,27754.272848877055,-24362.44033127312,-47809.30850616795,-50264.401765394425,-55164.3735366313,-43000.755369753286,-28894.636499242366,-18256.23431876115,0
305,187500.0,25879.676744899363,-58312.77320537248,-54258.63614781334,-53557.8419039061,-40034.433011345034,-18477.807161546607,-31779.44204562212,27618.75422224453,-24308.930255047115,-47716.414656211695,-50292.5202599192,-55116.76432094149,-42953.21320929685,-28899.10684813343,-18253.216833259685,0
306,187500.0,25863.471730169265,-58303.8101558459,-54242.677002272256,-53570.470639523344,-40024.799409484796,-18490.570007630587,-31765.919240226656,27978.036162619137,-24303.588188122296,-47626.38182954572,-50259.640843825444,-55137.41733281819,-42970.26759031625,-28885.89696716034,-18256.346077483428,0
307,187500.0,25869.37259070547,-58313.66727515069,-54259.440810613734,-53561.6417004635,-40019.36793558216,-18485.227940705772,-31778.726789799548,27804.094887267936,-24248.98287641798,-47521.999182939435,-50261.38427989296,-55101.498079478515,-42922.74778160427,-28897.18459811027,-18238.71055110819,0
308,187500.0,25830.12292744195,-58318.62936241977,-54252.17649366576,-53577.77965996023,-40012.193025612,-18508.42905145038,-31786.080513725345,28174.932679525937,-24265.970202204015,-47428.92651902754,-50174.078366050526,-55098.88292537724,-42923.708906615844,-28886.366353793903,-18261.151702541316,0
309,187500.0,25801.132714883413,-58319.277563008975,-54255.32808963396,-53570.73886045681,-40008.706153476975,-18497.387289689457,-31784.47118812456,27972.44822650531,-24227.391091274156,-47309.43409316947,-50183.15317429938,-55066.271730216955,-42900.26192668223,-28900.872635945398,-18254.379123971357,0
310,187500.0,25826.501944840187,-58311.946190827635,-54246.83442674094,-53580.93125592843,-39991.62942071312,-18496.515571655702,-31776.938650243123,28383.38504831613,-24208.30270150932,-47244.748144715806,-50078.39054803736,-55087.438832216125,-42923.217168237825,-28877.76093217861,-18259.05063856252,0
311,187500.0,25818.812944747562,-58288.54391438293,-54240.33006910444,-53567.11787785505,-39973.122176304125,-18483.551559871623,-31773.943516486113,28189.1036855106,-24160.2017474415,-47143.60650105554,-50100.58583028148,-55042.0424392274,-42879.810080505624,-28884.153531092827,-18252.18865301474,0
312,187500.0,25791.968499656738,-58286.77812657096,-54233.44573181221,-53620.695009314426,-39963.77914712181,-18490.927635541873,-31810.48861867054,28595.748972386,-24146.321314134755,-47014.7486942707,-49953.82427618793,-55035.023991468435,-42869.41651933391,-28877.85033915643,-18258.693010651234,0
313,187500.0,25740.134804264882,-58268.67321356216,-54233.73630449013,-53605.07113994016,-39935.99592876386,-18466.296013152125,-31788.29333642642,28410.698880040512,-24136.21832564096,-46868.65769251081,-49935.42879050122,-54979.68107219709,-42827.037611846645,-29001.343727272004,-18313.879467711387,0
314,187500.0,25552.804833984952,-58275.69166132113,-54260.69250830323,-53624.941840760934,-39958.95117031946,-18460.193986915827,-31803.134894744744,28792.243157892604,-24216.662253935607,-46712.597812723856,-49757.218331959055,-54985.76074668894,-42834.61485321699,-29030.378643319447,-18458.517606081678,0
315,187500.0,25352.868479832232,-58247.81903598536,-54273.008319498105,-53656.122524276085,-39978.19602229548,-18415.06581486056,-31797.09992374181,28634.641007738235,-24301.576531121318,-46507.00646722394,-49684.19518282356,-54933.45766466352,-42887.499080598245,-29009.323300042546,-18637.420968701957,0
316,187500.0,25236.192373775528,-58263.24173965952,-54330.22878530369,-53728.85510073365,-40061.32215992477,-18349.083465228494,-31812.947310560623,29003.958881373273,-24461.257393510034,-46289.65810414054,-49517.920555820536,-54921.119501724184,-43004.8010354997,-28783.235404877116,-18850.813073016772,0
317,187500.0,25324.213543440528,-58243.013410927466,-54333.44743650525,-53779.5935606472,-40103.81282613431,-18265.152664798818,-31774.971696731056,28922.754993767143,-24585.823665359458,-46039.45267670783,-49534.46084671746,-54904.556859082804,-43081.020484092296,-28680.305621660427,-19073.81642744737,0
318,187500.0,25558.459825332146,-58260.78304776944,-54357.6320240059,-53834.3553345627,-40166.95650422055,-18183.97112893714,-31770.52369958445,29221.55311364569,-24649.45908182372,-45820.65145023483,-49362.82180104516,-54909.317780651785,-43145.952301734964,-28644.900458443222,-19167.89491985976,0
319,187500.0,25879.497930943722,-58245.09212316181,-54334.4756167502,-53882.79156479736,-40181.99922823897,-18142.776863906012,-31741.913466681657,29148.01587438773,-24689.468704398718,-45621.00566876002,-49378.42331867496,-54890.47526007596,-43174.98721778241,-28824.004986763597,-19233.56434506945,0
320,187500.0,26093.158256192,-58270.23783567403,-54343.84099767697,-53930.53489095389,-40202.09344650429,-18120.53687817298,-31754.47514706554,29370.81806311823,-24684.730134574194,-45401.77975914237,-49289.61983795403,-54838.775675150835,-43185.35842720967,-29001.25432029418,-19230.27863863452,0
321,187500.0,26287.19374980852,-58248.80251274139,-54304.390168713355,-53955.97117614403,-40175.49487060247,-18113.004340291543,-31713.32558552332,29430.698386513996,-24643.669980009792,-45203.385675357065,-49327.841320972606,-54793.87102054012,-43169.6898543465,-29154.855508191053,-19228.62460954483,0
322,187500.0,26384.26737597792,-58271.310719407884,-54309.709883893716,-53983.48617356851,-40197.9360220356,-18084.125886455284,-31706.284786019896,29508.638919429653,-24602.855694634403,-45053.62898750651,-49250.437229923875,-54745.9712321724,-43131.17779865,-29201.995337247296,-19195.588731239885,0
323,187500.0,26410.50832396845,-58247.72962900754,-54264.402897882814,-53999.378263876235,-40196.72902783502,-18106.589389632867,-31682.32371596381,29493.73030587796,-24587.321232237966,-44973.98972201225,-49317.33600107861,-54755.62718577709,-43108.691943727965,-29226.805773592685,-19156.22730925409,0
324,187500.0,26408.250797778466,-58261.09597219181,-54258.54674083552,-54001.99341797751,-40208.642507629695,-18106.522334399502,-31683.016620041923,29512.103439820225,-24515.102745902866,-44847.18827571729,-49321.85105345858,-54714.32116202368,-43070.939847342954,-29105.212283755816,-19083.338270585333,0
325,187500.0,26408.51901871193,-58258.123190179256,-54228.39423756531,-54011.67172332665,-40198.87479530273,-18134.238497524082,-31657.714445318517,29604.66201360965,-24454.149538773247,-44765.17972531077,-49428.17830183248,-54726.54756624074,-43045.794134830736,-28983.507035196668,-19013.511420906954,0
326,187500.0,26387.486027179486,-58257.31852737886,-54225.98024916414,-53979.97694968903,-40209.268356474444,-18116.78178510449,-31651.523012104397,29512.192846798047,-24364.876671418748,-44652.88456116731,-49498.072206744226,-54719.931449881966,-43014.27817514875,-28839.315931715482,-18919.857611639218,0
327,185884.9300008929,26469.025190952445,-58138.22843292099,-54117.730750767085,-53907.579649398285,-40114.899291384136,-18076.23572066256,-31566.29581049631,29600.504589140965,-24265.90314697065,-44582.11893822181,-49556.432611517026,-54709.98492359936,-42923.19481649337,-28677.15402569223,-18839.05605543328,0
328,176095.64824052434,26458.05048442489,-58087.84760091873,-54083.73374745056,-53852.75082024942,-40086.937259070546,-18001.759708137477,-31518.61953957314,29588.635812835197,-24102.91422640255,-44471.455451423586,-49503.794253324784,-54676.68082436095,-42810.385562227435,-28480.883357630177,-18709.79591724824,0
329,165408.049870497,26463.101978671788,-58036.95267879399,-54065.7629449085,-53836.143474119126,-40044.983034727935,-17993.66837664466,-31491.03748691529,29810.789800976494,-24030.919257512007,-44375.097081076754,-49481.82248852521,-54691.79060361274,-42784.949277037296,-28340.492050706394,-18600.07120371714,0
330,155426.49840432388,26392.09048653728,-58036.77386483835,-54138.87550102181,-53840.211491609996,-40045.07244170576,-17961.995954751488,-31472.03850412828,29766.93567835518,-23930.805794096686,-44302.185690663544,-49519.0381430433,-54683.989844797834,-42736.9377299473,-28330.74669012388,-18487.597225618032,0
331,147440.77890405405,26361.35683791123,-58019.54066986331,-54159.66262336524,-53852.0579161713,-39977.70428391746,-17965.46047514206,-31452.346617263156,30037.548248475585,-23920.456936413877,-44317.697801315524,-49556.365556283665,-54753.146142142556,-42785.21749797076,-28422.724118557468,-18422.799518442098,0
332,139696.86057530172,26306.885636673647,-58005.34731213419,-54227.008429409085,-53844.97241317898,-39930.407992650034,-17964.186425708107,-31459.007437110835,29946.800165987035,-23804.89841757994,-44279.81159446378,-49632.83087406527,-54747.8711304511,-42721.71619197323,-28535.376910612216,-18278.72017368319,0
333,134003.51363462373,26248.882859812125,-58016.992570995404,-54266.77218279507,-53892.983960268975,-39921.35553614563,-17977.59747238129,-31465.020056369314,30209.768439503725,-23789.945100539342,-44337.23322596947,-49658.64713891115,-54817.02742779582,-42757.76955577965,-28584.640155391713,-18227.065292246974,0
334,127569.65340014141,26233.14723171559,-57980.782744977805,-54291.381453440365,-53871.90626524762,-39887.917326440496,-17944.516890587438,-31457.75573942134,30096.33333639304,-23706.014300109662,-44299.883460984645,-49681.557676977834,-54800.80006132127,-42716.48588377069,-28531.55476231036,-18136.183099291695,0
335,122862.17485215365,26179.45834153394,-57981.22977986691,-54294.51069766411,-53884.06561423131,-39875.62386699008,-17982.537207905916,-31482.342658322177,30401.568758674715,-23717.950131648795,-44313.49567335793,-49648.58885390626,-54834.3947332376,-42739.32936660402,-28430.927208772566,-18119.10636652784,0
336,116974.12186552548,26178.631326989096,-57964.913006414536,-54272.60598809791,-53856.058878428805,-39836.93299733794,-17970.489617644504,-31454.447681241953,30255.053073770177,-23626.307979382036,-44219.484236178905,-49666.0232145814,-54785.578523347205,-42672.251781493644,-28326.298692977274,-18045.211499358596,0
337,113389.14792408323,26102.747154563327,-57992.76328000585,-54309.75458738263,-53896.604942870734,-39855.14966906902,-18016.71302517808,-31476.195928596968,30532.438222460536,-23632.56646782952,-44200.41819815853,-49613.78718778935,-54846.71054443247,-42689.08264506848,-28229.560342974706,-18032.13572885224,0
338,108397.37753836841,26094.186436436947,-57953.89359639807,-54322.58448869998,-53877.82947752828,-39869.387730287046,-18010.432184986137,-31440.120213046102,30415.87387512611,-23562.113769306394,-44102.450502210915,-49679.63542695468,-54855.137152092124,-42668.58609540297,-28181.369981929063,-17995.03183305643,0
339,105655.51139778036,26056.881374941036,-57936.36982874511,-54393.4395186233,-53893.0733672468,-39874.75214895632,-18060.634203032758,-31482.096789133167,30679.155073065172,-23545.014684798087,-44093.018066050776,-49647.314804472306,-54899.19244041353,-42705.84645340997,-28147.082405934623,-17953.59169883629,0
340,100995.28443757111,26094.2087881814,-57897.32133118169,-54399.541544859596,-53856.59532029573,-39824.438372187426,-18040.271763833975,-31419.534256402763,30595.358383102226,-23472.975012418632,-43986.84727988807,-49696.667456229625,-54859.98748063892,-42676.364502473414,-28210.449601465418,-17917.761852474436,0
341,98103.39338819902,26078.696677529417,-57908.497203409344,-54516.284706149665,-53882.210419441515,-39808.143950479505,-18054.10749365181,-31433.347634476144,30968.163128872293,-23402.276444706495,-43814.358867926465,-49596.46458583648,-54893.00100719941,-42678.80084261904,-28240.11036635761,-17814.586200068738,0
342,93718.89754759044,26054.646200495506,-57879.417583872986,-54571.56057018764,-53888.73712882247,-39771.46473782835,-18074.089953194853,-31418.46137266891,30987.586794803956,-23384.082124719876,-43525.3731638638,-49630.08160949727,-54960.279758009885,-42709.04275286708,-28291.74289604937,-17786.311243332773,0
343,91851.54340881627,25995.414077688944,-57920.1201105261,-54672.65751035899,-53922.73413213899,-39800.29848817569,-18124.8284131084,-31506.99663245638,31220.2684545837,-23428.226820019107,-43389.58631629781,-49551.02348935884,-55101.31926552287,-42748.56063706406,-28311.21126546994,-17761.679620943025,0
344,89221.68185969375,26003.95244407087,-57852.03669691524,-54693.9587228249,-53924.70108565105,-39770.48126107231,-18118.88284908329,-31477.738198964384,31236.965207691817,-23435.49113696708,-43304.80614957883,-49596.26342013638,-55179.25979843853,-42783.29524794761,-28477.821168639803,-17762.66309769906,0
345,88841.52338999789,25987.34509794058,-57859.0551446742,-54771.809848762736,-53920.454254204546,-39780.316028632646,-18107.818735577912,-31507.890702234592,31508.89653073508,-23364.859624488312,-43141.750173777364,-49402.54085094224,-55218.71062740214,-42780.188355468315,-28536.89682923518,-17765.255900055876,0
346,86904.61062247881,25983.522949638722,-57790.837620596605,-54762.64563353606,-53915.38040821319,-39697.72633287029,-18128.404692221247,-31482.700286233463,31455.922896376003,-23400.39889817225,-43093.42570226499,-49360.36310915508,-55279.909703720776,-42779.87543104594,-28569.195099973098,-17770.396801280596,0
347,85747.4384602831,25962.646420317462,-57795.64324565449,-54843.82716939774,-53919.76135012643,-39718.312289513626,-18133.277372512504,-31504.247367888376,31573.91775535557,-23416.045119290964,-43133.70354577345,-49244.759886832224,-55268.42090707075,-42773.058148987075,-28537.522678079928,-17703.185105703487,0
348,83429.62961550112,25963.406379628945,-57718.485023794776,-54858.355803293685,-53927.98679208598,-39701.101446283035,-18176.103314888875,-31473.401960540054,31639.900104987635,-23394.54274112496,-43093.58216447618,-49169.07688010656,-55288.649235802804,-42775.96387576627,-28551.380759642216,-17679.78282925878,0
349,82181.26233592776,25953.817481257618,-57735.0253146917,-54920.7618738129,-53941.46489399253,-39688.98680078826,-18145.570831962923,-31493.13855089409,31664.755244821936,-23335.489432274037,-43129.97080444942,-49056.781715963094,-55310.263372691086,-42770.845326286,-28584.75191411399,-17633.894697892036,0
350,80166.9231256155,25930.459908301822,-57665.55609292461,-54896.19730665652,-53884.13266946467,-39630.96167218228,-18121.386244462283,-31461.22025981191,31755.57038254385,-23355.91892670619,-43050.15272499952,-49088.65530355636,-55366.030975107074,-42772.67816933134,-28652.902382958222,-17558.122284188543,0
351,78828.41126065388,25926.235428599768,-57682.5657704551,-54964.30307201184,-53897.454309160035,-39627.72066923627,-18093.893598782255,-31462.136681334578,31823.944368832636,-23335.71294971859,-42998.22962262984,-48975.01903474558,-55392.40603356434,-42752.62865455492,-28577.822873332843,-17499.493658482275,0
352,77469.71577044914,25914.724280205286,-57669.534703437654,-55003.776252719916,-53926.06454206283,-39604.09487534701,-18135.93723010269,-31464.863594158127,31936.485402165104,-23366.24543264454,-42976.995465397296,-48871.77632710652,-55416.70237978725,-42785.575125882046,-28554.197079443584,-17562.726743546336,0
353,75951.60763878914,25880.16848327738,-57651.586252640045,-55034.35343913477,-53898.840117316264,-39583.30775300357,-18116.312398470927,-31481.672105988517,31918.60400660086,-23322.547772234415,-42891.74591204475,-48679.73013874652,-55371.350690287436,-42748.40417485287,-28495.03201187039,-17564.939566247413,0
354,74617.94610237434,25877.039239053636,-57605.6981212733,-55026.30681113086,-53915.000428557454,-39576.35636047797,-18143.223898795117,-31482.074437388714,32056.313104190005,-23333.56718225088,-42865.66142626541,-48716.543461864414,-55408.20871689424,-42757.590741824,-28469.796892380346,-17624.328151265163,0
355,72834.41100530756,25857.81673882207,-57580.15007736088,-55076.28531173293,-53895.04032075886,-39578.1892035233,-18119.531049672492,-31480.95685016595,32018.493952571625,-23298.698460900603,-42709.91447090083,-48899.984228609115,-55346.29438475304,-42727.81821820953,-28430.279008183363,-17668.897529709047,0
356,72450.67625649885,25836.06849146706,-57597.740900247205,-55139.89837645274,-53940.034382347396,-39583.665380914856,-18160.92648040372,-31502.414524843043,32228.7568126627,-23327.15223159221,-42706.04761911007,-48678.076109656824,-55337.26427999309,-42755.62378831194,-28485.823093154802,-17743.418245723038,0
357,71302.55655080755,25835.64380832241,-57614.01297021067,-55196.73886260258,-53924.52227169541,-39575.08231104402,-18137.703017914657,-31484.399018812066,32163.579125831024,-23299.16784753416,-42534.9897187936,-48555.70030876402,-55278.03215718653,-42746.88425622991,-28531.331244865807,-17780.72330721895,0
358,71108.94574033568,25841.656427580885,-57605.67576952884,-55238.98365962311,-53941.62135620372,-39600.02685785614,-18166.13443686181,-31469.490405260374,32412.756373018787,-23322.592475723326,-42666.373272701894,-48685.854516727275,-55297.99226498512,-42793.64410563041,-28537.343864124283,-17848.449092918527,0
359,69744.95288669501,25836.180250189336,-57615.75640627819,-55289.498602092106,-53940.168492814126,-39572.80243310957,-18167.050858384475,-31460.884983645083,32311.882950291987,-23332.986036895043,-42495.382427618795,-48659.635920481196,-55274.63469202932,-42791.65480037389,-28498.362421794227,-17876.50053220994,0
360,70030.11644245582,25833.498040854698,-57612.82832775454,-55331.631640390355,-53969.62809200622,-39500.94157468576,-18181.31127134696,-31459.029788855292,32463.539536421245,-23443.202488804163,-42446.40975551722,-48813.371218844804,-55343.67923065177,-42866.26492336571,-28460.833842853768,-17893.15258182914,0
361,68561.80799744224,25826.16666867336,-57616.337551634024,-55362.43234424977,-53961.983795402506,-39442.98350131315,-18168.235500840605,-31457.912201632527,32352.138442055995,-23479.233500866118,-42413.9103190792,-48823.161282916226,-55354.989213346154,-42861.995740174745,-28403.971004959465,-17864.25177624843,0
362,68888.29992870092,25805.96069168576,-57641.03622925714,-55444.6867638453,-53995.71257778556,-39419.804742313,-18162.379343793316,-31466.69643720346,32516.71433648042,-23594.032060388574,-42381.34382740782,-48705.18877568111,-55408.58869654998,-42901.64773483846,-28372.075065621742,-17880.233273533973,0
363,67016.52014452459,25799.121057882436,-57615.53288883363,-55434.628478840415,-53958.54162675639,-39379.236326126615,-18161.01588738154,-31436.856858355626,32411.728192773844,-23623.871639236408,-42455.26104632152,-48907.896746146296,-55357.26909128059,-42865.99670243224,-28335.731129137414,-17873.617157175202,0
364,67341.13452924902,25761.547775453066,-57645.59598512602,-55465.78681061111,-53988.045929437394,-39384.6454482848,-18164.391000794294,-31458.582753966184,32576.840529065197,-23716.609026981478,-42381.0532547299,-49134.07404828955,-55353.9163296123,-42896.506833613734,-28295.877968773602,-17917.65009375216,0
365,65882.72790702914,25765.14640631037,-57622.998371481706,-55460.37768845293,-53962.54258901389,-39364.05949164146,-18163.63104148281,-31427.849105340138,32445.32286469017,-23785.430048159367,-42307.29249802739,-49197.731816498264,-55342.71810564019,-42895.99274349127,-28263.132663146578,-17958.352620405272,0
366,66267.82611224963,25697.28651014406,-57676.59785468553,-55532.12678815446,-54000.20527842108,-39416.004945755594,-18175.522169533037,-31464.88594590258,32549.01260721834,-23857.559127516644,-42318.33425978831,-49142.008917571184,-55349.0660010655,-42912.5777378771,-28217.021014335278,-17994.584798167325,0
367,64714.55868656143,25699.23111191167,-57638.89046178943,-55518.715741481275,-53944.01299286044,-39381.44914882769,-18138.082997570396,-31431.112460030614,32455.872888073074,-23946.943753593416,-42289.05347455186,-49230.05243898064,-55334.06798053598,-42948.92167436143,-28182.75579008529,-18032.113377107784,0
368,65037.38493172943,25654.013532878584,-57679.28006402017,-55582.70878585682,-53956.14999009967,-39426.59967262741,-18145.906108129755,-31452.480727729886,32600.55572993228,-23981.566605754688,-42370.167955180164,-49120.37242893844,-55308.22936394565,-42953.772002908234,-28127.010539413757,-18048.206633115606,0
369,63641.85376666234,25663.468320783177,-57682.25284603272,-55605.86519311252,-53943.81182716034,-39406.013715984074,-18161.39586703728,-31432.69943388694,32537.05442393475,-24017.97759747238,-42313.349820774776,-49090.219925668236,-55257.468552287646,-42942.819648125136,-28108.816219427135,-18032.89568816372,0
370,63865.818246104514,25640.6024862054,-57739.6297740495,-55643.14790286397,-53962.96727215854,-39430.198303484714,-18154.377419278317,-31458.850974899648,32548.76673802933,-24053.31570545622,-42214.95744168251,-48983.78091857206,-55252.305299318476,-42950.95568310686,-28098.623823955517,-18030.43699627364,0
371,62632.337228338394,25645.78809091903,-57728.29743961066,-55629.379228279504,-53963.995452403484,-39416.20611145569,-18164.8380356834,-31440.299027001744,32457.415158440494,-24105.57408399273,-42157.98284506593,-49000.097692024436,-55256.73094472062,-42962.712700690354,-28124.082460890113,-18013.449670487604,0
372,62636.36054234035,25637.428538492746,-57734.064189680124,-55663.10801066256,-53966.25297859347,-39426.510265649595,-18148.320096530926,-31454.000646352848,32493.535577480267,-24137.62648554164,-42148.081022272236,-48956.93647348124,-55233.060447342454,-42951.22390404033,-28083.84932087056,-17933.989218948987,0
373,61564.95202361966,25638.88140188234,-57711.73479696927,-55675.98261546882,-53954.89829241017,-39406.88543401783,-18171.923538675732,-31431.134811775068,32476.905879605518,-24145.114319934168,-42132.45715289797,-48988.921819796786,-55235.653249699266,-42951.760345907256,-28082.79878888116,-17905.40133779065,0
374,61315.30538979833,25587.248872190583,-57748.4810648538,-55692.70172032139,-53963.950748914576,-39440.52480942307,-18154.064494855942,-31442.109518302623,32454.04004502774,-24170.371791168665,-42107.33379213021,-48999.71771236869,-55198.41524343673,-42948.29582551668,-28057.78718683567,-17870.890244351656,0
375,60526.84760413738,25574.508377851056,-57709.879602179484,-55646.45596104336,-53948.99743187397,-39412.27220443156,-18154.489178000593,-31411.554683632217,32445.009940267795,-24196.16570427009,-42133.99942326539,-49138.656155902885,-55202.19268824968,-42954.84488664209,-28066.102035773045,-17842.34706668223,0
376,60133.18868079051,25521.892371403264,-57750.023335221216,-55719.54616541221,-53960.62033899073,-39389.115797175866,-18142.754512161555,-31431.805364108728,32394.472646054346,-24214.605893445718,-42181.96626686648,-49265.815230109125,-55201.41037719374,-42965.12668909153,-28033.669654568395,-17796.77185973786,0
377,59653.25202384616,25483.670888384688,-57727.73864599928,-55702.20121171489,-53957.96048140055,-39338.913779129245,-18160.34533504788,-31407.106686485615,32414.879788742044,-24249.206393862536,-42299.58114619031,-49449.814790465214,-55218.28594425749,-42989.46773880336,-28031.657997567418,-17796.973025437954,0
378,59079.907426823076,25441.22492566406,-57747.02820146421,-55740.51210171129,-53945.66702195013,-39330.97890984761,-18149.102407586863,-31418.371965691087,32315.772153827213,-24224.731233683975,-42300.408160735155,-49633.30026069883,-55195.107185257344,-42958.97995936632,-27995.023488405168,-17741.69716139998,0
379,58856.322927036636,25429.981998203042,-57726.77752098769,-55733.85128186361,-53955.45708602155,-39311.10820902684,-18178.249082356582,-31411.666442354497,32346.97518908682,-24260.426969579097,-42343.681138000626,-49812.918879141675,-55222.108092559356,-42996.75440749579,-27986.48512202324,-17709.823573806712,0
380,58072.17902805556,25371.10750330776,-57749.66570730993,-55770.97752940387,-53944.90706263865,-39324.34044174438,-18162.15582634876,-31409.78889582025,32232.19898130882,-24224.79828891734,-42337.91438793116,-49980.51225906757,-55188.78164157649,-42970.46875601635,-27939.300589478087,-17657.7663609703,0
381,58120.056464678826,25360.088093291295,-57734.555928058144,-55747.77641865926,-53950.20442607456,-39284.73315056958,-18168.906053174265,-31395.88611076905,32281.126949921487,-24269.032391194392,-42382.1037867193,-50082.41386203931,-55220.8340431254,-42985.22090735685,-27902.442562871285,-17632.978276369366,0
382,57202.91968618867,25309.126115933195,-57752.01264047774,-55755.912453640994,-53941.9342806261,-39291.03634250598,-18160.702962959167,-31405.11738122909,32160.628695562926,-24244.71369322702,-42407.58477539835,-50239.74779126022,-55165.8711035098,-42955.76130816476,-27859.571917006007,-17578.395316409507,0
383,57512.468995150215,25266.590746234746,-57741.9320037284,-55735.25944176429,-53953.445429020576,-39267.65641780572,-18176.304480588973,-31409.945358031437,32215.301062500606,-24253.31911484231,-42490.68856128318,-50303.137338535475,-55181.38321416178,-42956.364805265046,-27821.193971776247,-17543.23602238131,0
384,56457.08667720398,25248.016446592384,-57713.880564436986,-55704.458737904875,-53924.45521646205,-39231.871274932775,-18145.324962773917,-31383.48089259635,32076.899060833344,-24213.734175411962,-42520.036401753,-50454.32453803117,-55133.170501371686,-42908.82264480861,-27779.038581733537,-17453.605527115527,0
385,56981.927988759046,25204.98933851592,-57696.4685555063,-55714.6511333765,-53947.94689988458,-39222.036507372446,-18165.73210546161,-31397.584843347653,32158.304114139573,-24210.716689910496,-42650.39177541635,-50524.531367365285,-55149.75549575753,-42927.575758406616,-27749.936610452725,-17420.748462766227,0
386,55807.34381763266,25178.860149247666,-57635.582403610046,-55680.408260870965,-53919.604887915244,-39183.770320864955,-18133.143262045774,-31361.68794175243,32003.339469830928,-24174.082180748246,-42754.59560806699,-50667.157848734605,-55104.292047535426,-42891.25417366674,-27729.708281720676,-17375.95556687779,0
